== Analysis Data ==
                                               Administrative information

Analysis performed on:                                                        2019/01/30
Analysis performed by:                                                        Ayupov5.20
Comments:                                                                     AH-64 Vlasova
Instrument:                                                                   Autosorb iQ S/N:14715112301 Station: 2
Instrument version:                                                           5.20.17081
Software version:                                                             5.2
 
                                                   Sample information

Id:                                                                           AH-64
Description:                                                                   
Weight:                                                                       0.1032 g
 
                                                  Analysis information

Analysis gas:                                                                 Nitrogen
Cross Section Area:                                                           16.2 
Molecular weight:                                                             28.0134 
Non-ideality correction:                                                      6.58e-05 
Ambient temperature:                                                          300 K
== Data Reduction Parameters ==
                  Thermal Transpiration: off    Eff. mol. diameter (D): 3.54 Å      Eff. cell stem diam. (d): 3.8000 mm
t-Method          Calc. method: Halsey
MP method         Thickness interval: 0.50A
Alpha-s method    Std. isotherm: _AALUM1        P / Po :          0.40
BJH/DH method     Moving pt. avg.: off          Ignoring P-tags below 0.35 P/Po
DA Method         Incr. E:    500.000           Incr. n:          0.100             Interact. Const. (K): 2.960nm³ x kJ / mol
DR method         Affinity coefficient (ß): 0.3300
Adsorbate model   Nitrogen                      Temperature       77.350K
                  Molec. Wt.: 28.013            Cross Section:    16.200  Å²        Liquid Density:   0.808  g/cc
                  Contact Angle: 0.0  degrees   Surf. Tension:    8.850  erg/cm²
                  Critical Temp.: 126.200  K    Critical Press.:  33.500  atm       SuperCritic. K.:  1.000
                  Avg. Diameter:0.300  nm       Polarizability:   1.460  (cc/molec) x 10-24Magn. Suscept.:2.000
                  Molec. Density6.700  (mol/cm²)x1014
Adsorbent model   Oxygen/Zeolite
                  Atom Diameter: 0.276  nm      Surf. Atom Dens.: 13.100  (mol/cm²)x1014Polarizability: 2.500  (cc/molec)x10-24
                                                Magn. Susc.:      1.300  (cc/molec)x10-29
== Isotherm ==


                          Relative                                                  Volume @ STP
                          Pressure                                                         
                                                                                        cc/g

                             6.17838e-03                                                36.3132
                             1.01092e-02                                                38.8689
                             2.63217e-02                                                44.2609
                             4.65206e-02                                                48.0024
                             6.82315e-02                                                50.9158
                             9.74158e-02                                                54.0742
                             1.51568e-01                                                59.0396
                             1.96242e-01                                                62.8144
                             2.52091e-01                                                67.4928
                             3.02683e-01                                                71.8872
                             4.00411e-01                                                81.3367
                             4.96155e-01                                                92.7043
                             5.46175e-01                                               100.2362
                             5.99467e-01                                               110.2907
                             6.50410e-01                                               123.4337
                             6.99617e-01                                               140.6817
                             7.47102e-01                                               164.0238
                             7.96573e-01                                               197.4204
                             8.46869e-01                                               240.3545
                             8.96638e-01                                               284.4764
                             9.19944e-01                                               298.1906
                             9.49905e-01                                               307.7493
                             9.92940e-01                                               321.8478
                             9.52973e-01                                               313.3269
                             9.23858e-01                                               309.8187
                             9.02514e-01                                               306.9580
                             8.71896e-01                                               300.6731
                             8.52556e-01                                               293.7620
                             8.02183e-01                                               256.2322
                             7.52758e-01                                               211.3280
                             7.04067e-01                                               171.3941
                             6.52375e-01                                               137.4219
                             5.99665e-01                                               115.4177
                             5.03843e-01                                                95.2772
                             4.78634e-01                                                91.7560
                             4.28036e-01                                                85.3127
                             4.02337e-01                                                82.3924
                             3.50530e-01                                                77.0401
                             2.53315e-01                                                68.1516
                             1.52300e-01                                                59.4086
                             4.76359e-02                                                48.2664
                             4.63049e-03                                                34.9588
== MBET summary ==
                                                     Slope =          15.315 1/g
                                                 Intercept =           1.032e-01 1/g
                                Correlation coefficient, r =           0.999996
                                                 C constant=         149.367
 
                                              Surface Area =         225.876 ~s/g
== Multi-Point BET ==


               Relative                            Volume @ STP                       1 / [ W((Po/P) - 1) ]
               Pressure                                                                          
                 P/Po                                  cc/g                                    1/g

                  4.65206e-02                          48.0024                                 8.1325e-01
                  6.82315e-02                          50.9158                                 1.1507e+00
                  9.74158e-02                          54.0742                                 1.5970e+00
                  1.51568e-01                          59.0396                                 2.4210e+00
                  1.96242e-01                          62.8144                                 3.1100e+00
== Alpha-s summary ==
                                                     Slope =          69.097
                                         Alpha-S Intercept =           5.986 cc/g
                                   Correlation coefficient =           0.997
 
                                          Micropore volume =           0.009 cc/g
== Alpha-S method ==


            P/Po                     Volume @ STP                  Liquid Vol.                    Alpha
                                                                                                     
                                         cc/g                         cc/g                           

             6.1784e-03                   3.6313e+01                   5.6170e-02                  4.3414e-01
             1.0109e-02                   3.8869e+01                   6.0123e-02                  4.8066e-01
             2.6322e-02                   4.4261e+01                   6.8463e-02                  5.5896e-01
             4.6521e-02                   4.8002e+01                   7.4251e-02                  6.0304e-01
== BJH adsorption summary ==
 
                                              Surface Area =         210.012 ~s/g
                                               Pore Volume =           0.492 cc/g
                                            Pore ^D Dv(^p) =          77.168 ^d
 
== ^G Adsorption  ==


    Diameter        Pore Volume       Pore Surf         dV(d)            dS(d)          dV(logd)         dS(logd)
                                        Area                                                                  
        Å              cc/g             m²/g           cc/Å/g           m²/Å/g            cc/g             cc/g

      37.1401           1.9115e-02       2.0587e+01      2.5342e-03       2.7293e+00       2.1597e-01       2.3260e+02
      43.4182           3.3182e-02       3.3547e+01      2.8060e-03       2.5851e+00       2.8021e-01       2.5815e+02
      49.2070           5.3235e-02       4.9847e+01      3.0548e-03       2.4832e+00       3.4561e-01       2.8094e+02
      56.4775           8.1311e-02       6.9732e+01      3.5197e-03       2.4928e+00       4.5696e-01       3.2364e+02
      65.5090           1.1926e-01       9.2903e+01      3.7623e-03       2.2973e+00       5.6638e-01       3.4583e+02
      77.1685           1.7127e-01       1.1986e+02      3.9303e-03       2.0373e+00       6.9665e-01       3.6111e+02
      93.8023           2.4483e-01       1.5123e+02      3.6716e-03       1.5657e+00       7.8999e-01       3.3687e+02
     120.3714           3.3620e-01       1.8159e+02      2.7602e-03       9.1722e-01       7.6018e-01       2.5261e+02
     168.6374           4.2512e-01       2.0268e+02      1.4019e-03       3.3252e-01       5.3787e-01       1.2758e+02
     228.4358           4.5160e-01       2.0732e+02      4.7152e-04       8.2565e-02       2.4676e-01       4.3209e+01
     330.2688           4.6907e-01       2.0944e+02      1.1841e-04       1.4341e-02       8.8533e-02       1.0723e+01
    1580.4914           4.9181e-01       2.1001e+02      9.6639e-06       2.4458e-04       2.7264e-02       6.9000e-01
== BJH desorption summary ==
 
                                              Surface Area =         268.231 ~s/g
                                               Pore Volume =           0.525 cc/g
                                            Pore ^D Dv(^p) =          66.218 ^d
 
== ^G Desorption  ==


    Diameter        Pore Volume       Pore Surf         dV(d)            dS(d)          dV(logd)         dS(logd)
                                        Area                                                                  
        Å              cc/g             m²/g           cc/Å/g           m²/Å/g            cc/g             cc/g

      31.8346           5.4384e-03       6.8333e+00      1.6323e-03       2.0510e+00       1.1954e-01       1.5020e+02
      34.4141           8.8842e-03       1.0838e+01      1.8857e-03       2.1918e+00       1.4939e-01       1.7364e+02
      37.3423           1.7512e-02       2.0080e+01      2.1414e-03       2.2938e+00       1.8395e-01       1.9704e+02
      40.4903           2.2480e-02       2.4988e+01      2.1911e-03       2.1646e+00       2.0423e-01       2.0176e+02
      47.0702           6.0469e-02       5.7271e+01      3.4877e-03       2.9638e+00       3.7631e-01       3.1979e+02
      56.6667           1.1151e-01       9.3298e+01      6.1488e-03       4.3403e+00       8.0085e-01       5.6531e+02
      66.2185           1.9349e-01       1.4282e+02      7.5885e-03       4.5839e+00       1.1545e+00       6.9737e+02
      78.6519           2.8809e-01       1.9093e+02      6.7269e-03       3.4211e+00       1.2150e+00       6.1792e+02
      96.1920           3.9084e-01       2.3366e+02      4.8888e-03       2.0329e+00       1.0785e+00       4.4848e+02
     124.3728           4.7225e-01       2.5984e+02      2.3033e-03       7.4076e-01       6.5514e-01       2.1070e+02
     152.4143           4.8661e-01       2.6361e+02      6.9253e-04       1.8175e-01       2.4267e-01       6.3686e+01
     187.4009           4.9904e-01       2.6626e+02      2.5257e-04       5.3910e-02       1.0836e-01       2.3128e+01
     240.6445           5.0446e-01       2.6716e+02      9.4533e-05       1.5713e-02       5.2133e-02       8.6656e+00
     349.4318           5.1078e-01       2.6789e+02      3.9439e-05       4.5147e-03       3.1168e-02       3.5678e+00
    1593.2792           5.2453e-01       2.6823e+02      5.9082e-06       1.4833e-04       1.7031e-02       4.2758e-01
== Data Reduction Parameters ==
                  Thermal Transpiration: off    Eff. mol. diameter (D): 3.54 Å      Eff. cell stem diam. (d): 3.8000 mm
t-Method          Calc. method: Halsey
MP method         Thickness interval: 0.50A
Alpha-s method    Std. isotherm: _AALUM1        P / Po :          0.40
BJH/DH method     Moving pt. avg.: off          Ignoring P-tags below 0.35 P/Po
DA Method         Incr. E:    500.000           Incr. n:          0.100             Interact. Const. (K): 2.960nm³ x kJ / mol
DR method         Affinity coefficient (ß): 0.3300
Adsorbate model   Nitrogen                      Temperature       77.350K
                  Molec. Wt.: 28.013            Cross Section:    16.200  Å²        Liquid Density:   0.808  g/cc
                  Contact Angle: 0.0  degrees   Surf. Tension:    8.850  erg/cm²
                  Critical Temp.: 126.200  K    Critical Press.:  33.500  atm       SuperCritic. K.:  1.000
                  Avg. Diameter:0.300  nm       Polarizability:   1.460  (cc/molec) x 10-24Magn. Suscept.:2.000
                  Molec. Density6.700  (mol/cm²)x1014
Adsorbent model   Oxygen/Zeolite
                  Atom Diameter: 0.276  nm      Surf. Atom Dens.: 13.100  (mol/cm²)x1014Polarizability: 2.500  (cc/molec)x10-24
                                                Magn. Susc.:      1.300  (cc/molec)x10-29
== DFT method summary ==
                                               Pore volume =           0.475 cc/g
                                              Surface area =         213.457 ~s/g
                                    Lower confidence limit =          14.320 ^d
                                             Fitting error =           0.577 %
                                                 ^W (Mode) =          81.450 ^d
 
                                      Moving point average :           3
== ^G Pore Size Distribution ==


       Pore width              Cumulative              Cumulative                 dV(d)                   dS(d)
                               Pore Volume            Surface Area                                           
            Å                     cc/g                    m²/g                   cc/Å/g                  m²/Å/g

          14.3200                  3.1609e-03              1.4664e+01              6.5855e-05              1.8395e-01
          14.9800                  3.2032e-03              1.4779e+01              6.4070e-05              1.7378e-01
          15.6400                  3.2310e-03              1.4853e+01              4.2119e-05              1.1247e-01
          16.3100                  3.2310e-03              1.4853e+01              0.0000e+00              0.0000e+00
          16.9700                  3.2310e-03              1.4853e+01              0.0000e+00              0.0000e+00
          17.8000                  3.2310e-03              1.4853e+01              0.0000e+00              0.0000e+00
          18.6800                  3.2310e-03              1.4853e+01              0.0000e+00              0.0000e+00
          19.4800                  3.2310e-03              1.4853e+01              0.0000e+00              0.0000e+00
          20.2700                  3.2310e-03              1.4853e+01              0.0000e+00              0.0000e+00
          21.0700                  3.2310e-03              1.4853e+01              0.0000e+00              0.0000e+00
          21.8600                  3.2310e-03              1.4853e+01              0.0000e+00              0.0000e+00
          22.6600                  3.2310e-03              1.4853e+01              0.0000e+00              0.0000e+00
          23.4500                  3.2310e-03              1.4853e+01              0.0000e+00              0.0000e+00
          24.2500                  3.2310e-03              1.4853e+01              0.0000e+00              0.0000e+00
          25.0400                  3.2310e-03              1.4853e+01              0.0000e+00              0.0000e+00
          25.8300                  3.2310e-03              1.4853e+01              0.0000e+00              0.0000e+00
          27.0300                  3.2310e-03              1.4853e+01              0.0000e+00              0.0000e+00
          28.2200                  3.2310e-03              1.4853e+01              0.0000e+00              0.0000e+00
          29.4100                  3.2310e-03              1.4853e+01              0.0000e+00              0.0000e+00
          30.6000                  3.2310e-03              1.4853e+01              0.0000e+00              0.0000e+00
          31.7900                  3.2310e-03              1.4853e+01              0.0000e+00              0.0000e+00
          32.9800                  3.2310e-03              1.4853e+01              0.0000e+00              0.0000e+00
          34.1800                  3.2310e-03              1.4853e+01              0.0000e+00              0.0000e+00
          35.3700                  3.2310e-03              1.4853e+01              0.0000e+00              0.0000e+00
          36.5600                  3.2310e-03              1.4853e+01              0.0000e+00              0.0000e+00
          37.7500                  3.2310e-03              1.4853e+01              0.0000e+00              0.0000e+00
          39.3400                  3.2310e-03              1.4853e+01              0.0000e+00              0.0000e+00
          40.9300                  3.3940e-03              1.5006e+01              1.0254e-04              9.6463e-02
          42.5200                  3.9406e-03              1.5508e+01              3.4374e-04              3.1519e-01
          44.1100                  5.0747e-03              1.6523e+01              7.1328e-04              6.3863e-01
          45.7000                  6.7730e-03              1.8000e+01              1.0681e-03              9.2913e-01
          47.2800                  8.9691e-03              1.9851e+01              1.3900e-03              1.1713e+00
          48.8700                  1.1465e-02              2.1885e+01              1.5694e-03              1.2796e+00
          50.8600                  1.4947e-02              2.4623e+01              1.7502e-03              1.3756e+00
          52.8500                  1.8952e-02              2.7642e+01              2.0125e-03              1.5169e+00
          54.8300                  2.4074e-02              3.1356e+01              2.5869e-03              1.8760e+00
          56.8200                  3.0137e-02              3.5614e+01              3.0464e-03              2.1397e+00
          58.8000                  3.6701e-02              4.0084e+01              3.3152e-03              2.2575e+00
          60.7900                  4.2936e-02              4.4188e+01              3.1330e-03              2.0626e+00
          63.1700                  5.0087e-02              4.8728e+01              3.0047e-03              1.9073e+00
          65.5600                  5.8068e-02              5.3576e+01              3.3393e-03              2.0286e+00
          67.9400                  6.8337e-02              5.9581e+01              4.3148e-03              2.5229e+00
          70.3200                  8.0160e-02              6.6290e+01              4.9678e-03              2.8192e+00
          73.1000                  9.4236e-02              7.4023e+01              5.0632e-03              2.7815e+00
          75.8800                  1.0838e-01              8.1469e+01              5.0884e-03              2.6785e+00
          78.6700                  1.2487e-01              8.9814e+01              5.9095e-03              2.9908e+00
          81.4500                  1.4266e-01              9.8541e+01              6.3993e-03              3.1393e+00
          84.6200                  1.6284e-01              1.0812e+02              6.3658e-03              3.0214e+00
          87.8000                  1.8202e-01              1.1686e+02              6.0306e-03              2.7483e+00
          90.9800                  2.0158e-01              1.2546e+02              6.1538e-03              2.7042e+00
          94.1600                  2.2088e-01              1.3366e+02              6.0665e-03              2.5801e+00
          97.7300                  2.4070e-01              1.4181e+02              5.5522e-03              2.2826e+00
         101.3100                  2.5875e-01              1.4896e+02              5.0438e-03              1.9959e+00
         104.8800                  2.7598e-01              1.5552e+02              4.8249e-03              1.8393e+00
         108.8500                  2.9505e-01              1.6254e+02              4.8029e-03              1.7672e+00
         112.8300                  3.1356e-01              1.6911e+02              4.6524e-03              1.6523e+00
         116.8000                  3.3089e-01              1.7506e+02              4.3657e-03              1.4978e+00
         121.1700                  3.4784e-01              1.8068e+02              3.8779e-03              1.2860e+00
         125.5400                  3.6278e-01              1.8546e+02              3.4191e-03              1.0936e+00
         129.9100                  3.7542e-01              1.8936e+02              2.8908e-03              8.9313e-01
         134.6700                  3.8790e-01              1.9308e+02              2.6229e-03              7.8187e-01
         139.4400                  3.9867e-01              1.9618e+02              2.2578e-03              6.4897e-01
         144.6000                  4.0921e-01              1.9911e+02              2.0423e-03              5.6784e-01
         149.7700                  4.1821e-01              2.0152e+02              1.7402e-03              4.6609e-01
         155.3300                  4.2711e-01              2.0382e+02              1.6008e-03              4.1312e-01
         160.8900                  4.3538e-01              2.0588e+02              1.4889e-03              3.7067e-01
         166.8500                  4.4269e-01              2.0764e+02              1.2254e-03              2.9628e-01
         172.8100                  4.4801e-01              2.0889e+02              8.9283e-04              2.0896e-01
         179.1600                  4.5154e-01              2.0968e+02              5.5578e-04              1.2520e-01
         185.5200                  4.5422e-01              2.1027e+02              4.2134e-04              9.1361e-02
         192.2700                  4.5660e-01              2.1076e+02              3.5306e-04              7.3574e-02
         199.0200                  4.5865e-01              2.1118e+02              3.0317e-04              6.1246e-02
         206.1700                  4.6041e-01              2.1152e+02              2.4617e-04              4.8149e-02
         213.7200                  4.6192e-01              2.1180e+02              1.9980e-04              3.7461e-02
         221.2700                  4.6330e-01              2.1205e+02              1.8282e-04              3.3080e-02
         229.2100                  4.6475e-01              2.1231e+02              1.8367e-04              3.2110e-02
         237.5500                  4.6613e-01              2.1254e+02              1.6454e-04              2.7757e-02
         246.2900                  4.6731e-01              2.1273e+02              1.3489e-04              2.2122e-02
         255.0300                  4.6819e-01              2.1287e+02              1.0073e-04              1.5928e-02
         264.1700                  4.6888e-01              2.1298e+02              7.5890e-05              1.1507e-02
         273.7000                  4.6960e-01              2.1308e+02              7.5292e-05              1.1010e-02
         283.6300                  4.7029e-01              2.1318e+02              6.9351e-05              9.8034e-03
         293.9600                  4.7091e-01              2.1326e+02              6.0755e-05              8.3204e-03
         304.6800                  4.7148e-01              2.1334e+02              5.2609e-05              6.9252e-03
         315.4100                  4.7199e-01              2.1340e+02              4.7658e-05              6.0467e-03
         326.5300                  4.7248e-01              2.1346e+02              4.3956e-05              5.4117e-03
         338.0500                  4.7293e-01              2.1352e+02              3.9653e-05              4.7022e-03
         349.9700                  4.7337e-01              2.1357e+02              3.6299e-05              4.1496e-03
         362.2800                  4.7379e-01              2.1361e+02              3.4048e-05              3.7750e-03
         374.9900                  4.7419e-01              2.1366e+02              3.1382e-05              3.3542e-03
         388.1000                  4.7457e-01              2.1370e+02              2.9406e-05              3.0305e-03
         401.6000                  4.7494e-01              2.1373e+02              2.7564e-05              2.7565e-03
         415.5100                  4.7528e-01              2.1377e+02              2.4087e-05              2.3292e-03
         429.8100                  4.7558e-01              2.1379e+02              2.0839e-05              1.9431e-03
         444.5000                  4.7589e-01              2.1382e+02              2.1653e-05              1.9453e-03
         459.6000                  4.7627e-01              2.1385e+02              2.4736e-05              2.1524e-03
== ^G Pore Size Distribution (log) ==


       Pore width              Cumulative              Cumulative               dV(log d)               dS(log d)
                               Pore Volume            Surface Area                                           
            Å                     cc/g                    m²/g                    cc/g                    m²/g

          14.3200                  3.1609e-03              1.4664e+01              4.2616e-03              1.1379e+01
          14.9800                  3.2032e-03              1.4779e+01              2.1465e-03              5.7315e+00
          15.6400                  3.2310e-03              1.4853e+01              7.2592e-04              1.9384e+00
          16.3100                  3.2310e-03              1.4853e+01              0.0000e+00              0.0000e+00
          16.9700                  3.2310e-03              1.4853e+01              0.0000e+00              0.0000e+00
          17.8000                  3.2310e-03              1.4853e+01              0.0000e+00              0.0000e+00
          18.6800                  3.2310e-03              1.4853e+01              0.0000e+00              0.0000e+00
          19.4800                  3.2310e-03              1.4853e+01              0.0000e+00              0.0000e+00
          20.2700                  3.2310e-03              1.4853e+01              0.0000e+00              0.0000e+00
          21.0700                  3.2310e-03              1.4853e+01              0.0000e+00              0.0000e+00
          21.8600                  3.2310e-03              1.4853e+01              0.0000e+00              0.0000e+00
          22.6600                  3.2310e-03              1.4853e+01              0.0000e+00              0.0000e+00
          23.4500                  3.2310e-03              1.4853e+01              0.0000e+00              0.0000e+00
          24.2500                  3.2310e-03              1.4853e+01              0.0000e+00              0.0000e+00
          25.0400                  3.2310e-03              1.4853e+01              0.0000e+00              0.0000e+00
          25.8300                  3.2310e-03              1.4853e+01              0.0000e+00              0.0000e+00
          27.0300                  3.2310e-03              1.4853e+01              0.0000e+00              0.0000e+00
          28.2200                  3.2310e-03              1.4853e+01              0.0000e+00              0.0000e+00
          29.4100                  3.2310e-03              1.4853e+01              0.0000e+00              0.0000e+00
          30.6000                  3.2310e-03              1.4853e+01              0.0000e+00              0.0000e+00
          31.7900                  3.2310e-03              1.4853e+01              0.0000e+00              0.0000e+00
          32.9800                  3.2310e-03              1.4853e+01              0.0000e+00              0.0000e+00
          34.1800                  3.2310e-03              1.4853e+01              0.0000e+00              0.0000e+00
          35.3700                  3.2310e-03              1.4853e+01              0.0000e+00              0.0000e+00
          36.5600                  3.2310e-03              1.4853e+01              0.0000e+00              0.0000e+00
          37.7500                  3.2310e-03              1.4853e+01              0.0000e+00              0.0000e+00
          39.3400                  3.2310e-03              1.4853e+01              4.8295e-03              4.5433e+00
          40.9300                  3.3940e-03              1.5006e+01              2.1649e-02              1.9965e+01
          42.5200                  3.9406e-03              1.5508e+01              5.2650e-02              4.7487e+01
          44.1100                  5.0747e-03              1.6523e+01              9.1292e-02              8.0291e+01
          45.7000                  6.7730e-03              1.8000e+01              1.3002e-01              1.1102e+02
          47.2800                  8.9691e-03              1.9851e+01              1.6173e-01              1.3372e+02
          48.8700                  1.1465e-02              2.1885e+01              1.8773e-01              1.4991e+02
          50.8600                  1.4947e-02              2.4623e+01              2.2115e-01              1.6973e+02
          52.8500                  1.8952e-02              2.7642e+01              2.8147e-01              2.0744e+02
          54.8300                  2.4074e-02              3.1356e+01              3.5722e-01              2.5444e+02
          56.8200                  3.0137e-02              3.5614e+01              4.1658e-01              2.8772e+02
          58.8000                  3.6701e-02              4.0084e+01              4.3544e-01              2.9137e+02
          60.7900                  4.2936e-02              4.4188e+01              4.2911e-01              2.7715e+02
          63.1700                  5.0087e-02              4.8728e+01              4.6162e-01              2.8593e+02
          65.5600                  5.8068e-02              5.3576e+01              5.8131e-01              3.4537e+02
          67.9400                  6.8337e-02              5.9581e+01              7.2776e-01              4.1830e+02
          70.3200                  8.0160e-02              6.6290e+01              8.1161e-01              4.5253e+02
          73.1000                  9.4236e-02              7.4023e+01              8.5277e-01              4.5792e+02
          75.8800                  1.0838e-01              8.1469e+01              9.6434e-01              4.9666e+02
          78.6700                  1.2487e-01              8.9814e+01              1.1158e+00              5.5506e+02
          81.4500                  1.4266e-01              9.8541e+01              1.1950e+00              5.7600e+02
          84.6200                  1.6284e-01              1.0812e+02              1.2039e+00              5.5952e+02
          87.8000                  1.8202e-01              1.1686e+02              1.2323e+00              5.5097e+02
          90.9800                  2.0158e-01              1.2546e+02              1.2781e+00              5.5210e+02
          94.1600                  2.2088e-01              1.3366e+02              1.2564e+00              5.2519e+02
          97.7300                  2.4070e-01              1.4181e+02              1.1876e+00              4.7888e+02
         101.3100                  2.5875e-01              1.4896e+02              1.1503e+00              4.4649e+02
         104.8800                  2.7598e-01              1.5552e+02              1.1639e+00              4.3546e+02
         108.8500                  2.9505e-01              1.6254e+02              1.1842e+00              4.2776e+02
         112.8300                  3.1356e-01              1.6911e+02              1.1688e+00              4.0783e+02
         116.8000                  3.3089e-01              1.7506e+02              1.1058e+00              3.7299e+02
         121.1700                  3.4784e-01              1.8068e+02              1.0137e+00              3.3015e+02
         125.5400                  3.6278e-01              1.8546e+02              9.0755e-01              2.8547e+02
         129.9100                  3.7542e-01              1.8936e+02              8.2145e-01              2.4928e+02
         134.6700                  3.8790e-01              1.9308e+02              7.5283e-01              2.2040e+02
         139.4400                  3.9867e-01              1.9618e+02              6.8782e-01              1.9443e+02
         144.6000                  4.0921e-01              1.9911e+02              6.2633e-01              1.7098e+02
         149.7700                  4.1821e-01              2.0152e+02              5.7501e-01              1.5115e+02
         155.3300                  4.2711e-01              2.0382e+02              5.5135e-01              1.3968e+02
         160.8900                  4.3538e-01              2.0588e+02              5.0073e-01              1.2291e+02
         166.8500                  4.4269e-01              2.0764e+02              4.0255e-01              9.5909e+01
         172.8100                  4.4801e-01              2.0889e+02              2.8510e-01              6.5705e+01
         179.1600                  4.5154e-01              2.0968e+02              1.9972e-01              4.4208e+01
         185.5200                  4.5422e-01              2.1027e+02              1.6490e-01              3.5083e+01
         192.2700                  4.5660e-01              2.1076e+02              1.4458e-01              2.9673e+01
         199.0200                  4.5865e-01              2.1118e+02              1.2483e-01              2.4833e+01
         206.1700                  4.6041e-01              2.1152e+02              1.0509e-01              2.0147e+01
         213.7200                  4.6192e-01              2.1180e+02              9.3928e-02              1.7297e+01
         221.2700                  4.6330e-01              2.1205e+02              9.3285e-02              1.6574e+01
         229.2100                  4.6475e-01              2.1231e+02              9.1723e-02              1.5749e+01
         237.5500                  4.6613e-01              2.1254e+02              8.1503e-02              1.3563e+01
         246.2900                  4.6731e-01              2.1273e+02              6.6175e-02              1.0675e+01
         255.0300                  4.6819e-01              2.1287e+02              5.1617e-02              8.0090e+00
         264.1700                  4.6888e-01              2.1298e+02              4.5985e-02              6.8406e+00
         273.7000                  4.6960e-01              2.1308e+02              4.5528e-02              6.5438e+00
         283.6300                  4.7029e-01              2.1318e+02              4.2298e-02              5.8857e+00
         293.9600                  4.7091e-01              2.1326e+02              3.8164e-02              5.1265e+00
         304.6800                  4.7148e-01              2.1334e+02              3.5093e-02              4.5352e+00
         315.4100                  4.7199e-01              2.1340e+02              3.3168e-02              4.1447e+00
         326.5300                  4.7248e-01              2.1346e+02              3.1320e-02              3.7843e+00
         338.0500                  4.7293e-01              2.1352e+02              2.9531e-02              3.4377e+00
         349.9700                  4.7337e-01              2.1357e+02              2.8294e-02              3.1843e+00
         362.2800                  4.7379e-01              2.1361e+02              2.7213e-02              2.9619e+00
         374.9900                  4.7419e-01              2.1366e+02              2.6230e-02              2.7520e+00
         388.1000                  4.7457e-01              2.1370e+02              2.5416e-02              2.5793e+00
         401.6000                  4.7494e-01              2.1373e+02              2.3777e-02              2.3388e+00
         415.5100                  4.7528e-01              2.1377e+02              2.1417e-02              2.0345e+00
         429.8100                  4.7558e-01              2.1379e+02              2.1048e-02              1.9240e+00
         444.5000                  4.7589e-01              2.1382e+02              2.2777e-02              2.0218e+00
         459.6000                  4.7627e-01              2.1385e+02              2.5745e-02              2.2402e+00
== ^G Fitting Comparison ==


                 P/Po                              Fitted Volume                         Measured Volume
                                                                                                 
                                                       cc/g                                   cc/g

                  0.01                                 36.32                                  36.62
                  0.0112202                            37                                     37
                  0.0125893                            37.81                                  37.42
                  0.0141254                            38.55                                  37.9
                  0.0158489                            39.35                                  38.43
                  0.0177828                            40.19                                  39.03
                  0.0199526                            40.96                                  39.7
                  0.0223872                            41.76                                  40.45
                  0.0246431                            42.47                                  41.15
                  0.0260599                            42.9                                   41.59
                  0.0274766                            43.31                                  42.03
                  0.0288934                            43.72                                  42.47
                  0.0312623                            44.36                                  43.2
                  0.0336313                            44.97                                  43.93
                  0.0360002                            45.54                                  44.67
                  0.0390043                            46.21                                  45.6
                  0.0420084                            46.85                                  46.53
                  0.0450125                            47.46                                  47.45
                  0.0474025                            47.93                                  48.19
                  0.0497925                            48.38                                  48.5
                  0.0521825                            48.83                                  48.75
                  0.0549159                            49.32                                  49.04
                  0.0576494                            49.8                                   49.33
                  0.0603829                            50.24                                  49.62
                  0.063589                             50.73                                  49.96
                  0.0667951                            51.21                                  50.31
                  0.0700012                            51.7                                   50.65
                  0.0736681                            52.25                                  51.04
                  0.0773349                            52.78                                  51.43
                  0.0810018                            53.27                                  51.82
                  0.0849305                            53.78                                  52.24
                  0.0888591                            54.28                                  52.65
                  0.0927878                            54.76                                  53.07
                  0.09659                              55.22                                  53.48
                  0.100392                             55.66                                  53.88
                  0.104194                             56.11                                  54.29
                  0.107598                             56.5                                   54.65
                  0.111002                             56.89                                  55.01
                  0.114405                             57.26                                  55.37
                  0.121239                             57.98                                  56.1
                  0.128073                             58.66                                  56.83
                  0.134906                             59.34                                  57.56
                  0.141696                             60.02                                  58.28
                  0.148486                             60.71                                  59
                  0.155277                             61.39                                  59.67
                  0.161445                             61.98                                  60.2
                  0.167613                             62.57                                  60.73
                  0.173781                             63.14                                  61.27
                  0.180589                             63.73                                  61.86
                  0.187398                             64.3                                   62.45
                  0.194206                             64.87                                  63.04
                  0.200827                             65.43                                  63.61
                  0.207448                             66                                     64.18
                  0.214068                             66.57                                  64.75
                  0.220112                             67.09                                  65.28
                  0.226155                             67.61                                  65.8
                  0.232199                             68.12                                  66.32
                  0.238755                             68.66                                  66.89
                  0.245311                             69.2                                   67.46
                  0.251866                             69.74                                  68.03
                  0.258072                             70.23                                  68.59
                  0.264278                             70.73                                  69.15
                  0.270484                             71.22                                  69.72
                  0.276294                             71.68                                  70.25
                  0.282103                             72.15                                  70.78
                  0.287912                             72.61                                  71.31
                  0.293606                             73.06                                  71.84
                  0.299301                             73.52                                  72.36
                  0.304995                             73.99                                  72.88
                  0.31298                              74.65                                  73.61
                  0.320966                             75.31                                  74.34
                  0.328952                             75.96                                  75.07
                  0.335973                             76.52                                  75.71
                  0.342995                             77.08                                  76.35
                  0.350016                             77.64                                  76.99
                  0.356469                             78.15                                  77.65
                  0.362922                             78.67                                  78.32
                  0.369374                             79.18                                  78.99
                  0.375549                             79.79                                  79.62
                  0.381723                             80.3                                   80.26
                  0.387898                             80.81                                  80.9
                  0.393997                             81.6                                   81.53
                  0.400096                             82.11                                  82.16
                  0.406195                             82.6                                   82.83
                  0.412348                             83.56                                  83.53
                  0.418501                             84.07                                  84.23
                  0.424653                             84.58                                  84.93
                  0.430927                             85.68                                  85.68
                  0.437201                             86.2                                   86.48
                  0.443475                             87.47                                  87.28
                  0.44989                              88.02                                  88.1
                  0.456305                             88.58                                  88.91
                  0.46272                              90.06                                  89.73
                  0.469257                             90.62                                  90.56
                  0.475795                             91.19                                  91.39
                  0.482333                             91.75                                  92.27
                  0.488949                             93.42                                  93.2
                  0.495565                             93.98                                  94.12
                  0.502182                             96.03                                  95.05
                  0.508814                             96.64                                  96.32
                  0.515445                             97.24                                  97.72
                  0.522077                             99.9                                   99.11
                  0.528652                            100.5                                  100.5
                  0.535227                            101.1                                  101.9
                  0.541803                            103.7                                  103.3
                  0.548246                            104.3                                  104.6
                  0.554689                            106.9                                  106
                  0.561132                            107.5                                  107.3
                  0.567372                            108                                    108.6
                  0.573611                            110.8                                  109.9
                  0.579851                            111.3                                  111.3
                  0.585823                            111.8                                  112.5
                  0.591795                            114.7                                  113.8
                  0.597768                            115.2                                  115
                  0.603422                            119.3                                  117
                  0.609076                            119.8                                  119.3
                  0.61473                             120.3                                  121.7
                  0.620029                            125.6                                  123.9
                  0.625329                            126                                    126.1
                  0.630628                            126.5                                  128.3
                  0.635554                            131.8                                  130.4
                  0.640481                            132.3                                  132.5
                  0.645407                            132.7                                  134.5
                  0.649959                            137.8                                  136.4
                  0.654511                            138.2                                  138.8
                  0.659062                            144.6                                  141.8
                  0.663257                            145                                    144.6
                  0.667451                            145.4                                  147.3
                  0.671645                            153.5                                  150.1
                  0.675514                            153.8                                  152.6
                  0.679384                            154.1                                  155.2
                  0.683254                            154.4                                  157.7
                  0.686846                            162.1                                  160.1
                  0.690438                            162.4                                  162.4
                  0.69403                             162.7                                  164.8
                  0.697404                            170.1                                  167
                  0.700777                            170.4                                  169.2
                  0.70415                             170.6                                  171.5
                  0.707369                            170.9                                  174.1
                  0.710588                            179.2                                  176.7
                  0.713806                            179.4                                  179.4
                  0.716937                            179.7                                  181.9
                  0.720067                            188.2                                  184.5
                  0.723197                            188.4                                  187.1
                  0.726299                            188.6                                  189.6
                  0.729401                            188.8                                  192.2
                  0.732503                            197.1                                  194.7
                  0.735624                            197.3                                  197.3
                  0.738745                            197.5                                  199.8
                  0.741867                            204.9                                  202.4
                  0.745034                            205.1                                  205
                  0.748201                            205.3                                  207.6
                  0.751368                            212.9                                  210.2
                  0.754577                            213.1                                  213
                  0.757785                            213.3                                  215.9
                  0.760994                            221.7                                  218.8
                  0.764197                            221.9                                  221.7
                  0.767401                            222.1                                  224.6
                  0.770604                            230.4                                  227.5
                  0.773704                            230.6                                  230.4
                  0.776803                            230.7                                  233.2
                  0.779903                            238.6                                  236
                  0.782734                            238.8                                  238.6
                  0.785565                            239                                    241.1
                  0.788395                            246.8                                  243.7
                  0.790713                            246.9                                  245.8
                  0.79303                             247                                    247.9
                  0.795348                            247.1                                  250
                  0.796813                            253.6                                  251.4
                  0.798279                            253.7                                  252.7
                  0.799744                            253.7                                  254
                  0.802865                            253.9                                  256.7
                  0.805986                            260.1                                  259.1
                  0.809107                            260.2                                  261.4
                  0.811285                            265.5                                  263
                  0.813463                            265.6                                  264.6
                  0.815641                            265.7                                  266.3
                  0.817839                            265.8                                  267.9
                  0.820037                            271.3                                  269.5
                  0.822235                            271.4                                  271.2
                  0.824511                            271.5                                  272.9
                  0.826787                            276.3                                  274.6
                  0.829063                            276.4                                  276.3
                  0.831001                            276.5                                  277.7
                  0.832939                            280.7                                  279.1
                  0.834877                            280.8                                  280.6
                  0.836817                            280.9                                  282
                  0.838757                            285.1                                  283.5
                  0.840698                            285.1                                  284.9
                  0.842707                            285.2                                  286.4
                  0.844717                            289.4                                  287.9
                  0.846726                            289.5                                  289.4
                  0.848581                            289.5                                  290.8
                  0.850435                            293.6                                  292.2
                  0.852289                            293.6                                  293.6
                  0.85395                             293.7                                  294.3
                  0.855611                            293.7                                  294.9
                  0.857272                            296                                    295.4
                  0.858993                            296.1                                  296.1
                  0.860713                            296.1                                  296.7
                  0.862433                            297.9                                  297.3
                  0.864215                            297.9                                  297.9
                  0.865997                            298                                    298.6
                  0.867778                            299.2                                  299.2
                  0.869337                            300.4                                  299.8
                  0.870895                            300.5                                  300.3
                  0.872453                            300.5                                  300.8
                  0.873868                            300.6                                  301.1
                  0.875283                            301.8                                  301.4
                  0.876698                            301.8                                  301.7
                  0.878163                            301.8                                  302
                  0.879628                            301.9                                  302.3
                  0.881093                            302.7                                  302.6
                  0.88261                             302.8                                  302.9
                  0.884128                            303.5                                  303.2
                  0.885645                            303.5                                  303.5
                  0.887187                            303.6                                  303.8
                  0.888729                            304.4                                  304.1
                  0.890271                            304.4                                  304.4
                  0.891499                            304.5                                  304.7
                  0.892728                            305.2                                  304.9
                  0.893956                            305.2                                  305.2
                  0.895229                            305.3                                  305.5
                  0.896501                            306.1                                  305.7
                  0.897773                            306.1                                  306
                  0.899091                            306.2                                  306.3
                  0.900408                            306.2                                  306.5
                  0.901726                            306.9                                  306.8
                  0.902923                            306.9                                  307
                  0.90412                             307.3                                  307.2
                  0.905316                            307.3                                  307.3
                  0.90647                             307.4                                  307.5
                  0.907624                            307.8                                  307.6
                  0.908778                            307.8                                  307.8
                  0.909901                            307.8                                  307.9
                  0.911023                            308.2                                  308.1
                  0.912146                            308.2                                  308.2
                  0.913194                            308.3                                  308.4
                  0.914242                            308.7                                  308.5
                  0.91529                             308.7                                  308.7
                  0.916322                            308.8                                  308.8
                  0.917354                            308.8                                  308.9
                  0.918386                            309.1                                  309.1
                  0.919365                            309.2                                  309.2
                  0.920344                            309.5                                  309.3
                  0.921323                            309.5                                  309.5
                  0.922271                            309.5                                  309.6
                  0.923219                            309.8                                  309.7
                  0.924167                            309.9                                  309.9
                  0.925105                            309.9                                  310
                  0.926044                            310.2                                  310.1
                  0.926983                            310.2                                  310.2
                  0.927854                            310.2                                  310.3
                  0.928725                            310.4                                  310.4
                  0.929597                            310.5                                  310.5
                  0.930477                            310.8                                  310.6
                  0.931356                            310.8                                  310.7
                  0.932236                            310.8                                  310.8
                  0.933039                            310.8                                  310.9
                  0.933842                            311.1                                  311
                  0.934645                            311.1                                  311.1
                  0.935465                            311.3                                  311.2
                  0.936285                            311.3                                  311.3
                  0.937104                            311.3                                  311.4
                  0.93785                             311.6                                  311.5
                  0.938596                            311.6                                  311.6
                  0.939342                            311.6                                  311.7
                  0.940095                            311.9                                  311.8
                  0.940847                            311.9                                  311.9
                  0.9416                              311.9                                  312
                  0.942304                            312.1                                  312
                  0.943008                            312.1                                  312.1
                  0.943712                            312.3                                  312.2
                  0.944391                            312.3                                  312.3
                  0.945071                            312.3                                  312.4
                  0.945751                            312.5                                  312.5
                  0.946436                            312.5                                  312.5
                  0.947121                            312.7                                  312.6
                  0.947805                            312.8                                  312.7
                  0.948418                            312.8                                  312.8
                  0.949031                            312.8                                  312.9
                  0.949644                            312.8                                  312.9
== Analysis Data ==
                                               Administrative information

Analysis performed on:                                                        2019/01/30
Analysis performed by:                                                        Ayupov5.20
Comments:                                                                     AH-64 Vlasova
Instrument:                                                                   Autosorb iQ S/N:14715112301 Station: 2
Instrument version:                                                           5.20.17081
Software version:                                                             5.2
 
                                                   Sample information

Id:                                                                           AH-64
Description:                                                                   
Weight:                                                                       0.1032 g
 
                                                  Analysis information

Analysis gas:                                                                 Nitrogen
Cross Section Area:                                                           16.2 
Molecular weight:                                                             28.0134 
Non-ideality correction:                                                      6.58e-05 
Ambient temperature:                                                          300 K
== Data Reduction Parameters ==
                  Thermal Transpiration: off    Eff. mol. diameter (D): 3.54 Å      Eff. cell stem diam. (d): 3.8000 mm
Adsorbate model   Nitrogen                      Temperature       77.350K
                  Molec. Wt.: 28.013            Cross Section:    16.200  Å²        Liquid Density:   0.808  g/cc
                  Contact Angle: 0.0  degrees   Surf. Tension:    8.850  erg/cm²
                  Critical Temp.: 126.200  K    Critical Press.:  33.500  atm       SuperCritic. K.:  1.000
                  Avg. Diameter:0.300  nm       Polarizability:   1.460  (cc/molec) x 10-24Magn. Suscept.:2.000
                  Molec. Density6.700  (mol/cm²)x1014
Adsorbent model   Oxygen/Zeolite
                  Atom Diameter: 0.276  nm      Surf. Atom Dens.: 13.100  (mol/cm²)x1014Polarizability: 2.500  (cc/molec)x10-24
                                                Magn. Susc.:      1.300  (cc/molec)x10-29
== Volume/Area summary ==
                                                   Surface Area Data
 
MultiPoint BET                                                                           2.259e+02 m²/g
BJH method cumulative adsorption surface area                                            2.100e+02 m²/g
BJH method cumulative desorption surface area                                            2.682e+02 m²/g
DFT cumulative surface area                                                              2.135e+02 m²/g
 
                                                    Pore Volume Data
 
Total pore volume for pores with Diameter
less than 2756.97 Å at P/Po = 0.992940                                                   4.978e-01 cc/g
BJH method cumulative adsorption pore volume                                             4.918e-01 cc/g
BJH method cumulative desorption pore volume                                             5.245e-01 cc/g
DFT method cumulative pore volume                                                        4.754e-01 cc/g
 
                                                     Pore Size Data
 
Average pore Diameter                                                                    8.816e+01 Å
BJH method adsorption pore Diameter (Mode Dv(d))                                         7.717e+01 Å
BJH method desorption pore Diameter (Mode Dv(d))                                         6.622e+01 Å
DFT pore Diameter (Mode)                                                                 8.145e+01 Å
 
 
