== Analysis Data ==
                                               Administrative information

Analysis performed on:                                                        01/22/14
Analysis performed by:                                                        Melgunov
Comments:                                                                      
Instrument:                                                                   Autosorb Station: 1
Instrument version:                                                           n/a
Software version:                                                             n/a
 
                                                  Sample ifnformation

Id:                                                                           GSO TX 8nm
Description:                                                                  Reference material
Weight:                                                                       0.0808 g
 
                                             Sample preparation information

Outgas time:                                                                  10.0 hrs
Outgas temperature:                                                           250.0 C
 
                                                  Analysis information

Analysis gas:                                                                 NITROGEN
Cross Section Area:                                                           16.2 
Molecular weight:                                                             28.0134 
Non-ideality correction:                                                      6.58e-05 
Ambient temperature:                                                          297.15 K
Pressure tolerance band:                                                      0
Equilibration time:                                                           3
== Data Reduction Parameters ==
                  Thermal Transpiration: on     Eff. mol. diameter (D): 3.54 Å      Eff. cell stem diam. (d): 4.0000 mm
Adsorbate         Nitrogen                      Temperature       77.350K
                  Molec. Wt.: 28.013            Cross Section:    16.200  Å²        Liquid Density:   0.808  g/cc
                  Contact Angle: 0.0  degrees   Surf. Tension:    8.850  erg/cm²
                  Critical Temp.: 126.200  K    Critical Press.:  33.500  atm       SuperCritic. K.:  1.000
                  Avg. Diameter:0.300  nm       Polarizability:   1.460  (cc/molec) x 10-24Magn. Suscept.:2.000
                  Molec. Density6.700  (mol/cm²)x1014
Adsorbent         Oxygen/Zeolite
== Volume/Area summary ==
                                                   Surface Area Data
 
MultiPoint BET                                                                           5.176e+02 m²/g
BJH method cumulative adsorption surface area                                            4.182e+02 m²/g
BJH method cumulative desorption surface area                                            5.306e+02 m²/g
 
                                                    Pore Volume Data
 
Total pore volume for pores with Diameter
less than 75.95 nm at P/Po = 0.973800                                                    8.858e-01 cc/g
BJH method cumulative adsorption pore volume                                             8.742e-01 cc/g
BJH method cumulative desorption pore volume                                             9.322e-01 cc/g
 
                                                     Pore Size Data
 
Average pore Diameter                                                                    6.846e+00 nm
BJH method adsorption pore Diameter (Mode Dv(d))                                         8.055e+00 nm
BJH method desorption pore Diameter (Mode Dv(d))                                         6.807e+00 nm
 
 
== Isotherm ==


                          Relative                                                  Volume @ STP
                          Pressure                                                         
                                                                                        cc/g

                             6.39983e-03                                                66.6097
                             1.08999e-02                                                75.6224
                             2.65000e-02                                                91.0143
                             5.20000e-02                                               104.3805
                             8.17000e-02                                               114.7335
                             9.86000e-02                                               119.5950
                             1.23100e-01                                               125.9350
                             1.48200e-01                                               131.8933
                             1.96400e-01                                               142.1379
                             2.19200e-01                                               146.6059
                             2.39400e-01                                               150.5501
                             2.59700e-01                                               154.5012
                             2.70200e-01                                               156.3923
                             2.80400e-01                                               158.2672
                             2.90100e-01                                               160.0960
                             3.00000e-01                                               161.9064
                             3.09800e-01                                               163.6998
                             3.19700e-01                                               165.5668
                             3.29800e-01                                               167.4190
                             3.39800e-01                                               169.3281
                             3.49300e-01                                               171.1401
                             3.59100e-01                                               172.9600
                             3.69000e-01                                               174.8156
                             3.79000e-01                                               176.7434
                             3.89100e-01                                               178.7057
                             3.98900e-01                                               180.6884
                             4.09000e-01                                               182.6468
                             4.18800e-01                                               184.5916
                             4.37300e-01                                               188.3568
                             4.70400e-01                                               195.3057
                             4.97100e-01                                               201.2598
                             5.22200e-01                                               207.2083
                             5.47000e-01                                               213.4086
                             5.71700e-01                                               220.0474
                             5.96500e-01                                               227.3401
                             6.21700e-01                                               235.3161
                             6.46300e-01                                               244.3019
                             6.74300e-01                                               256.6607
                             6.98300e-01                                               271.8748
                             7.21000e-01                                               298.2282
                             7.51100e-01                                               371.6705
                             7.83400e-01                                               443.4923
                             7.95600e-01                                               472.0850
                             8.23200e-01                                               532.2448
                             8.74700e-01                                               543.7673
                             9.11100e-01                                               549.1840
                             9.36900e-01                                               554.0690
                             9.48000e-01                                               556.6268
                             9.69900e-01                                               564.2134
                             9.94600e-01                                               589.4675
                             9.73800e-01                                               572.6915
                             9.42800e-01                                               562.2667
                             9.12500e-01                                               556.3065
                             8.85100e-01                                               552.1922
                             8.76000e-01                                               550.9070
                             8.51300e-01                                               547.7294
                             8.26600e-01                                               544.5234
                             8.01300e-01                                               541.2089
                             7.77100e-01                                               537.3199
                             7.55200e-01                                               529.7303
                             7.29500e-01                                               466.6931
                             6.96800e-01                                               377.7575
                             6.80300e-01                                               338.4059
                             6.49600e-01                                               283.6956
                             6.30400e-01                                               263.7636
                             5.93900e-01                                               240.7143
                             5.68900e-01                                               229.2340
                             5.53900e-01                                               223.0782
                             5.28000e-01                                               213.8784
                             5.02500e-01                                               206.2652
                             4.82200e-01                                               200.8145
                             4.62300e-01                                               195.3835
                             4.41000e-01                                               190.3944
                             4.21800e-01                                               186.0327
                             4.01200e-01                                               181.7422
                             3.81200e-01                                               177.8102
                             3.61200e-01                                               173.9673
                             3.41000e-01                                               170.2382
                             3.21100e-01                                               166.5052
                             3.00800e-01                                               162.7572
                             2.80600e-01                                               159.1404
                             2.60700e-01                                               155.4105
                             2.40500e-01                                               151.4494
                             2.20300e-01                                               147.6127
                             2.00700e-01                                               143.6487
                             1.80400e-01                                               139.3871
                             1.60400e-01                                               135.1702
                             1.01100e-01                                               120.9214
                             5.22000e-02                                               104.8015
== MBET summary ==
                                                     Slope =           6.655
                                                 Intercept =           7.368e-02
                                Correlation coefficient, r =           0.999953
                                                 C constant=          91.322
 
                                              Surface Area =         517.558 ~s/g
== Multi-Point BET ==


               Relative                            Volume @ STP                       1 / [ W((Po/P) - 1) ]
               Pressure                                                                          
                 P/Po                                  cc/g                                      

                  8.17000e-02                         114.7335                                 6.2044e-01
                  9.86000e-02                         119.5950                                 7.3181e-01
                  1.23100e-01                         125.9350                                 8.9189e-01
                  1.48200e-01                         131.8933                                 1.0555e+00
                  1.96400e-01                         142.1379                                 1.3758e+00
                  2.19200e-01                         146.6059                                 1.5321e+00
                  2.39400e-01                         150.5501                                 1.6728e+00
== BJH adsorption summary ==
 
                                              Surface Area =         418.159 ~s/g
                                               Pore Volume =           0.874 cc/g
                                            Pore ^D Dv(^p) =           8.055 ^d
 
== ^G Adsorption  ==


    Diameter        Pore Volume       Pore Surf         dV(d)            dS(d)          dV(logd)         dS(logd)
                                        Area                                                                  
       nm              cc/g             m²/g           cc/nm/g          m²/nm/g           cc/g             cc/g

       3.1000           2.7091e-03       3.4956e+00      4.3910e-02       5.6658e+01       3.1342e-01       4.0441e+02
       3.1627           5.6233e-03       7.1813e+00      4.5655e-02       5.7740e+01       3.3247e-01       4.2048e+02
       3.2277           8.5809e-03       1.0847e+01      4.4742e-02       5.5447e+01       3.3252e-01       4.1208e+02
       3.2937           1.1718e-02       1.4656e+01      4.7672e-02       5.7896e+01       3.6153e-01       4.3906e+02
       3.3614           1.4559e-02       1.8037e+01      4.0812e-02       4.8565e+01       3.1587e-01       3.7588e+02
       3.4309           1.7436e-02       2.1391e+01      4.1443e-02       4.8318e+01       3.2739e-01       3.8169e+02
       3.5338           2.3068e-02       2.7767e+01      4.1298e-02       4.6747e+01       3.3600e-01       3.8033e+02
       3.7338           3.3364e-02       3.8796e+01      3.9043e-02       4.1826e+01       3.3553e-01       3.5945e+02
       3.9827           4.2332e-02       4.7803e+01      3.8305e-02       3.8471e+01       3.5118e-01       3.5270e+02
       4.2202           5.1439e-02       5.6435e+01      3.7824e-02       3.5850e+01       3.6745e-01       3.4828e+02
       4.4711           6.0950e-02       6.4943e+01      3.6440e-02       3.2600e+01       3.7504e-01       3.3553e+02
       4.7450           7.1307e-02       7.3675e+01      3.6119e-02       3.0448e+01       3.9450e-01       3.3256e+02
       5.0483           8.2994e-02       8.2935e+01      3.6537e-02       2.8950e+01       4.2456e-01       3.3640e+02
       5.3904           9.5811e-02       9.2446e+01      3.5182e-02       2.6107e+01       4.3650e-01       3.2391e+02
       5.7734           1.1103e-01       1.0299e+02      3.7870e-02       2.6237e+01       5.0323e-01       3.4865e+02
       6.2374           1.3330e-01       1.1727e+02      4.2331e-02       2.7146e+01       6.0759e-01       3.8965e+02
       6.7623           1.6406e-01       1.3547e+02      5.8743e-02       3.4748e+01       9.1422e-01       5.4078e+02
       7.3110           2.2416e-01       1.6835e+02      1.0474e-01       5.7306e+01       1.7623e+00       9.6421e+02
       8.0549           4.0163e-01       2.5648e+02      1.9418e-01       9.6426e+01       3.5975e+00       1.7865e+03
       9.1371           5.7024e-01       3.3029e+02      1.3483e-01       5.9027e+01       2.8324e+00       1.2399e+03
      10.0480           6.3655e-01       3.5669e+02      1.1609e-01       4.6213e+01       2.6851e+00       1.0689e+03
      11.1200           7.7363e-01       4.0600e+02      8.7157e-02       3.1351e+01       2.2279e+00       8.0140e+02
      14.2686           7.9714e-01       4.1259e+02      4.9761e-03       1.3950e+00       1.6198e-01       4.5410e+01
      19.9051           8.0729e-01       4.1463e+02      1.5498e-03       3.1145e-01       7.0389e-02       1.4145e+01
      27.7393           8.1610e-01       4.1590e+02      9.6636e-04       1.3935e-01       6.1163e-02       8.8197e+00
      35.6319           8.2062e-01       4.1641e+02      6.7737e-04       7.6041e-02       5.5413e-02       6.2206e+00
      52.6472           8.3366e-01       4.1740e+02      4.7643e-04       3.6198e-02       5.6430e-02       4.2874e+00
     212.8503           8.7419e-01       4.1816e+02      1.3831e-04       2.5992e-03       5.5231e-02       1.0379e+00
== ^G Interpolated Adsorption ==


            Diameter                   Average         Volume         Cumulative       Surf. Area       Cumulative
            Interval                  Diameter        Increment         Volume          Increment       Surf. Area
               nm                        nm             cc/g             cc/g             m²/g             m²/g

          200.000 - 250.000            225.000           3.251e-03        3.251e-03        5.780e-02        5.780e-02
          150.000 - 200.000            175.000           1.265e-02        1.590e-02        2.891e-01        3.469e-01
          100.000 - 150.000            125.000           1.265e-02        2.855e-02        4.048e-01        7.517e-01
           90.000 - 100.000             95.000           2.530e-03        3.108e-02        1.065e-01        8.582e-01
           80.000 - 90.000              85.000           2.530e-03        3.361e-02        1.191e-01        9.773e-01
           70.000 - 80.000              75.000           2.530e-03        3.614e-02        1.349e-01        1.112e+00
           60.000 - 70.000              65.000           2.530e-03        3.867e-02        1.557e-01        1.268e+00
           50.000 - 60.000              55.000           3.889e-03        4.256e-02        2.828e-01        1.551e+00
           45.000 - 50.000              47.500           3.831e-03        4.639e-02        3.226e-01        1.873e+00
           40.000 - 45.000              42.500           3.831e-03        5.022e-02        3.606e-01        2.234e+00
           35.000 - 40.000              37.500           3.708e-03        5.393e-02        3.956e-01        2.629e+00
           30.000 - 35.000              32.500           2.860e-03        5.679e-02        3.520e-01        2.982e+00
           25.000 - 30.000              27.500           4.375e-03        6.116e-02        6.363e-01        3.618e+00
           20.000 - 25.000              22.500           5.625e-03        6.679e-02        1.000e+00        4.618e+00
           15.000 - 20.000              17.500           8.939e-03        7.573e-02        2.043e+00        6.661e+00
           10.000 - 15.000              12.500           1.654e-01        2.411e-01        5.293e+01        5.959e+01
            9.000 - 10.000               9.500           8.418e-02        3.253e-01        3.544e+01        9.503e+01
            8.000 - 9.000                8.500           1.603e-01        4.857e-01        7.546e+01        1.705e+02
            7.000 - 8.000                7.500           1.984e-01        6.841e-01        1.058e+02        2.763e+02
            6.000 - 7.000                6.500           6.819e-02        7.523e-01        4.197e+01        3.183e+02
            5.000 - 6.000                5.500           4.077e-02        7.931e-01        2.965e+01        3.479e+02
            4.500 - 5.000                4.750           1.909e-02        8.121e-01        1.608e+01        3.640e+02
            4.000 - 4.500                4.250           1.905e-02        8.312e-01        1.793e+01        3.819e+02
            3.500 - 4.000                3.750           2.178e-02        8.530e-01        2.323e+01        4.052e+02
            3.000 - 3.500                3.250           1.851e-02        8.715e-01        2.278e+01        4.280e+02
== BJH desorption summary ==
 
                                              Surface Area =         530.587 ~s/g
                                               Pore Volume =           0.932 cc/g
                                            Pore ^D Dv(^p) =           6.807 ^d
 
== ^G Desorption  ==


    Diameter        Pore Volume       Pore Surf         dV(d)            dS(d)          dV(logd)         dS(logd)
                                        Area                                                                  
       nm              cc/g             m²/g           cc/nm/g          m²/nm/g           cc/g             cc/g

       3.1455           3.3051e-03       4.2029e+00      2.6062e-02       3.3141e+01       1.8873e-01       2.4000e+02
       3.2756           6.7599e-03       8.4218e+00      2.5911e-02       3.1641e+01       1.9540e-01       2.3861e+02
       3.4147           1.1012e-02       1.3403e+01      2.9330e-02       3.4358e+01       2.3058e-01       2.7010e+02
       3.5587           1.6102e-02       1.9124e+01      3.5612e-02       4.0028e+01       2.9177e-01       3.2795e+02
       3.7144           2.1970e-02       2.5443e+01      3.4836e-02       3.7515e+01       2.9789e-01       3.2080e+02
       3.8826           2.9898e-02       3.3611e+01      4.7198e-02       4.8625e+01       4.2188e-01       4.3464e+02
       4.0582           3.7268e-02       4.0876e+01      4.0225e-02       3.9648e+01       3.7581e-01       3.7042e+02
       4.2746           4.8551e-02       5.1433e+01      4.5196e-02       4.2293e+01       4.4473e-01       4.1616e+02
       4.5391           6.4122e-02       6.5155e+01      5.5740e-02       4.9119e+01       5.8239e-01       5.1322e+02
       4.7666           7.5419e-02       7.4635e+01      6.4350e-02       5.4001e+01       7.0619e-01       5.9262e+02
       5.0137           9.7366e-02       9.2145e+01      6.8872e-02       5.4947e+01       7.9482e-01       6.3412e+02
       5.4410           1.4678e-01       1.2847e+02      9.2204e-02       6.7785e+01       1.1542e+00       8.4854e+02
       5.8706           1.9468e-01       1.6111e+02      1.4817e-01       1.0096e+02       2.0024e+00       1.3644e+03
       6.3283           3.3451e-01       2.4949e+02      2.3614e-01       1.4926e+02       3.4383e+00       2.1733e+03
       6.8068           4.3586e-01       3.0905e+02      2.7783e-01       1.6327e+02       4.3535e+00       2.5583e+03
       7.4127           6.6270e-01       4.3146e+02      2.6778e-01       1.4450e+02       4.5655e+00       2.4636e+03
       8.2446           8.2046e-01       5.0800e+02      1.9317e-01       9.3718e+01       3.6641e+00       1.7777e+03
       9.0720           8.3833e-01       5.1588e+02      2.1321e-02       9.4007e+00       4.4506e-01       1.9623e+02
      10.0574           8.4687e-01       5.1927e+02      7.5454e-03       3.0009e+00       1.7455e-01       6.9422e+01
      11.3787           8.5382e-01       5.2172e+02      4.6023e-03       1.6179e+00       1.2041e-01       4.2327e+01
      13.1110           8.6033e-01       5.2370e+02      3.3283e-03       1.0154e+00       1.0029e-01       3.0598e+01
      15.4439           8.6655e-01       5.2531e+02      2.2932e-03       5.9396e-01       8.1340e-02       2.1067e+01
      17.4427           8.6902e-01       5.2588e+02      1.9254e-03       4.4154e-01       7.7295e-02       1.7725e+01
      20.8118           8.7672e-01       5.2736e+02      1.4114e-03       2.7127e-01       6.7248e-02       1.2925e+01
      29.5307           8.8744e-01       5.2881e+02      8.9482e-04       1.2121e-01       6.0000e-02       8.1272e+00
      55.7392           9.0528e-01       5.3009e+02      4.4117e-04       3.1660e-02       5.4045e-02       3.8784e+00
     217.6628           9.3223e-01       5.3059e+02      9.5086e-05       1.7474e-03       3.9925e-02       7.3370e-01
== ^G Interpolated Desorption ==


            Diameter                   Average         Volume         Cumulative       Surf. Area       Cumulative
            Interval                  Diameter       Incremen t         Volume          Increment       Surf. Area
               nm                        nm             cc/g             cc/g             m²/g             m²/g

          200.000 - 250.000            225.000           2.940e-03        2.940e-03        5.226e-02        5.226e-02
          150.000 - 200.000            175.000           8.321e-03        1.126e-02        1.902e-01        2.425e-01
          100.000 - 150.000            125.000           8.321e-03        1.958e-02        2.663e-01        5.088e-01
           90.000 - 100.000             95.000           1.664e-03        2.125e-02        7.008e-02        5.788e-01
           80.000 - 90.000              85.000           1.664e-03        2.291e-02        7.832e-02        6.571e-01
           70.000 - 80.000              75.000           1.664e-03        2.458e-02        8.876e-02        7.459e-01
           60.000 - 70.000              65.000           1.664e-03        2.624e-02        1.024e-01        8.483e-01
           50.000 - 60.000              55.000           4.615e-03        3.085e-02        3.356e-01        1.184e+00
           45.000 - 50.000              47.500           3.403e-03        3.426e-02        2.866e-01        1.471e+00
           40.000 - 45.000              42.500           3.403e-03        3.766e-02        3.203e-01        1.791e+00
           35.000 - 40.000              37.500           3.403e-03        4.106e-02        3.630e-01        2.154e+00
           30.000 - 35.000              32.500           3.403e-03        4.447e-02        4.188e-01        2.573e+00
           25.000 - 30.000              27.500           5.893e-03        5.036e-02        8.571e-01        3.430e+00
           20.000 - 25.000              22.500           7.006e-03        5.736e-02        1.246e+00        4.675e+00
           15.000 - 20.000              17.500           9.500e-03        6.687e-02        2.172e+00        6.847e+00
           10.000 - 15.000              12.500           1.899e-02        8.585e-02        6.076e+00        1.292e+01
            9.000 - 10.000               9.500           9.604e-03        9.546e-02        4.044e+00        1.697e+01
            8.000 - 9.000                8.500           6.270e-02        1.582e-01        2.951e+01        4.647e+01
            7.000 - 8.000                7.500           2.659e-01        4.240e-01        1.418e+02        1.883e+02
            6.000 - 7.000                6.500           2.740e-01        6.980e-01        1.686e+02        3.569e+02
            5.000 - 6.000                5.500           1.381e-01        8.361e-01        1.004e+02        4.573e+02
            4.500 - 5.000                4.750           3.433e-02        8.704e-01        2.891e+01        4.862e+02
            4.000 - 4.500                4.250           2.699e-02        8.974e-01        2.541e+01        5.116e+02
            3.500 - 4.000                3.750           2.080e-02        9.182e-01        2.219e+01        5.338e+02
            3.000 - 3.500                3.250           1.072e-02        9.289e-01        1.320e+01        5.470e+02
