== Analysis Data ==
                                               Administrative information

Analysis performed on:                                                        04/03/14
Analysis performed by:                                                        Melgunov
Comments:                                                                      
Instrument:                                                                   Autosorb Station: 1
Instrument version:                                                           n/a
Software version:                                                             n/a
 
                                                  Sample ifnformation

Id:                                                                           GSO TX 8nm
Description:                                                                  Reference material
Weight:                                                                       0.079 g
 
                                             Sample preparation information

Outgas time:                                                                  10.0 hrs
Outgas temperature:                                                           250.0 C
 
                                                  Analysis information

Analysis gas:                                                                 NITROGEN
Cross Section Area:                                                           16.2 
Molecular weight:                                                             28.0134 
Non-ideality correction:                                                      6.58e-05 
Ambient temperature:                                                          297.15 K
Pressure tolerance band:                                                      0
Equilibration time:                                                           3
== Data Reduction Parameters ==
                  Thermal Transpiration: on     Eff. mol. diameter (D): 3.54 Å      Eff. cell stem diam. (d): 4.0000 mm
t-Method          Calc. method: Halsey
MP method         Thickness interval: 0.50A
Alpha-s method    Std. isotherm: ALUMINIUMOXIDC P / Po :          0.40
BJH/DH method     Moving pt. avg.: off          Ignoring P-tags below 0.35 P/Po
DA Method         Incr. E:    500.000           Incr. n:          0.100             Interact. Const. (K): 2.960nm³ x kJ / mol
DR method         Affinity coefficient (ß): 0.3300
Adsorbate         Nitrogen                      Temperature       77.350K
                  Molec. Wt.: 28.013            Cross Section:    16.200  Å²        Liquid Density:   0.808  g/cc
                  Contact Angle: 0.0  degrees   Surf. Tension:    8.850  erg/cm²
                  Critical Temp.: 126.200  K    Critical Press.:  33.500  atm       SuperCritic. K.:  1.000
                  Avg. Diameter:0.300  nm       Polarizability:   1.460  (cc/molec) x 10-24Magn. Suscept.:2.000
                  Molec. Density6.700  (mol/cm²)x1014
Adsorbent         Oxygen/Zeolite
                  Atom Diameter: 0.276  nm      Surf. Atom Dens.: 13.100  (mol/cm²)x1014Polarizability: 2.500  (cc/molec)x10-24
                                                Magn. Susc.:      1.300  (cc/molec)x10-29
== Volume/Area summary ==
                                                   Surface Area Data
 
MultiPoint BET                                                                           5.441e+02 m²/g
BJH method cumulative adsorption surface area                                            4.127e+02 m²/g
BJH method cumulative desorption surface area                                            5.279e+02 m²/g
 
                                                    Pore Volume Data
 
Total pore volume for pores with Diameter
less than 132.93 nm at P/Po = 0.985200                                                   8.958e-01 cc/g
BJH method cumulative adsorption pore volume                                             8.457e-01 cc/g
BJH method cumulative desorption pore volume                                             9.082e-01 cc/g
 
                                                     Pore Size Data
 
Average pore Diameter                                                                    6.585e+00 nm
BJH method adsorption pore Diameter (Mode Dv(d))                                         8.137e+00 nm
BJH method desorption pore Diameter (Mode Dv(d))                                         7.414e+00 nm
 
 
== Isotherm ==


                          Relative                                                  Volume @ STP
                          Pressure                                                         
                                                                                        cc/g

                             6.29982e-03                                                72.4745
                             9.59988e-03                                                79.7317
                             2.62000e-02                                                97.5720
                             5.33000e-02                                               112.0536
                             8.17000e-02                                               122.0701
                             9.83000e-02                                               127.0459
                             1.23000e-01                                               133.4794
                             1.48100e-01                                               139.3841
                             1.96300e-01                                               149.6238
                             2.18700e-01                                               154.1675
                             2.39000e-01                                               158.1470
                             2.59300e-01                                               161.9154
                             2.70100e-01                                               163.8451
                             2.80400e-01                                               165.5457
                             2.89600e-01                                               167.3849
                             2.99800e-01                                               168.8723
                             3.09700e-01                                               170.6291
                             3.19700e-01                                               172.2770
                             3.29500e-01                                               174.1177
                             3.39600e-01                                               175.9151
                             3.49700e-01                                               177.6252
                             3.59000e-01                                               179.2647
                             3.69000e-01                                               181.0773
                             3.78700e-01                                               183.0894
                             3.89200e-01                                               184.9399
                             3.98600e-01                                               186.6599
                             4.08900e-01                                               188.5462
                             4.18900e-01                                               190.3705
                             4.37400e-01                                               193.9708
                             4.70400e-01                                               200.8853
                             4.97300e-01                                               206.8257
                             5.22400e-01                                               212.4280
                             5.46800e-01                                               218.3736
                             5.72200e-01                                               225.0902
                             5.97500e-01                                               232.1910
                             6.22300e-01                                               239.9025
                             6.47200e-01                                               248.7332
                             6.72100e-01                                               259.0437
                             6.95700e-01                                               272.2341
                             7.29400e-01                                               312.6951
                             7.49000e-01                                               362.5157
                             7.78300e-01                                               443.7996
                             7.93700e-01                                               484.6026
                             8.32400e-01                                               545.0060
                             8.62900e-01                                               549.9001
                             8.89700e-01                                               553.2675
                             8.98200e-01                                               554.4397
                             9.22500e-01                                               557.9681
                             9.46700e-01                                               562.2548
                             9.69700e-01                                               569.5177
                             9.85200e-01                                               579.1078
                             9.64600e-01                                               571.1681
                             9.37800e-01                                               564.9485
                             9.09200e-01                                               561.8904
                             8.84400e-01                                               557.4331
                             8.73900e-01                                               556.2056
                             8.52200e-01                                               553.8911
                             8.26800e-01                                               551.1798
                             8.01700e-01                                               548.3648
                             7.77100e-01                                               545.0590
                             7.55400e-01                                               538.2138
                             7.27600e-01                                               475.8877
                             6.99200e-01                                               386.1878
                             6.81300e-01                                               338.3324
                             6.55500e-01                                               291.3217
                             6.31800e-01                                               267.0474
                             5.94400e-01                                               243.6313
                             5.68800e-01                                               231.8927
                             5.53700e-01                                               225.9047
                             5.28000e-01                                               217.2146
                             5.02700e-01                                               209.7698
                             4.82100e-01                                               204.3338
                             4.62200e-01                                               199.0455
                             4.41500e-01                                               194.3447
                             4.21800e-01                                               189.9795
                             4.01200e-01                                               185.7337
                             3.81200e-01                                               181.9403
                             3.61200e-01                                               178.3527
                             3.41200e-01                                               174.6944
                             3.20900e-01                                               171.1031
                             3.01100e-01                                               167.5203
                             2.81000e-01                                               163.8809
                             2.60900e-01                                               160.3208
                             2.41100e-01                                               156.6839
                             2.21800e-01                                               153.0306
                             2.01300e-01                                               149.1082
                             1.80800e-01                                               145.1034
                             1.61100e-01                                               140.7899
                             1.01000e-01                                               126.1502
                             4.51000e-02                                               106.4477
== MBET summary ==
                                                     Slope =           6.337
                                                 Intercept =           6.330e-02
                                Correlation coefficient, r =           0.999978
                                                 C constant=         101.102
 
                                              Surface Area =         544.132 ~s/g
== Multi-Point BET ==


               Relative                            Volume @ STP                       1 / [ W((Po/P) - 1) ]
               Pressure                                                                          
                 P/Po                                  cc/g                                      

                  5.33000e-02                         112.0536                                 4.0201e-01
                  8.17000e-02                         122.0701                                 5.8315e-01
                  9.83000e-02                         127.0459                                 6.8656e-01
                  1.23000e-01                         133.4794                                 8.4070e-01
                  1.48100e-01                         139.3841                                 9.9794e-01
                  1.96300e-01                         149.6238                                 1.3061e+00
                  2.18700e-01                         154.1675                                 1.4527e+00
== BJH adsorption summary ==
 
                                              Surface Area =         412.694 ~s/g
                                               Pore Volume =           0.846 cc/g
                                            Pore ^D Dv(^p) =           8.137 ^d
 
== ^G Adsorption  ==


    Diameter        Pore Volume       Pore Surf         dV(d)            dS(d)          dV(logd)         dS(logd)
                                        Area                                                                  
       nm              cc/g             m²/g           cc/nm/g          m²/nm/g           cc/g             cc/g

       3.0997           2.5291e-03       3.2637e+00      4.0588e-02       5.2376e+01       2.8967e-01       3.7381e+02
       3.1618           5.9907e-03       7.6430e+00      5.5928e-02       7.0755e+01       4.0716e-01       5.1510e+02
       3.2271           8.3512e-03       1.0569e+01      3.4357e-02       4.2586e+01       2.5529e-01       3.1643e+02
       3.2930           1.0674e-02       1.3390e+01      3.6811e-02       4.4715e+01       2.7911e-01       3.3903e+02
       3.3600           1.3173e-02       1.6365e+01      3.5212e-02       4.1919e+01       2.7242e-01       3.2430e+02
       3.4309           1.5515e-02       1.9096e+01      3.3076e-02       3.8562e+01       2.6129e-01       3.0463e+02
       3.5345           2.0562e-02       2.4807e+01      3.6992e-02       4.1863e+01       3.0102e-01       3.4066e+02
       3.7342           3.0844e-02       3.5821e+01      3.9105e-02       4.1888e+01       3.3610e-01       3.6002e+02
       3.9837           3.9724e-02       4.4738e+01      3.7631e-02       3.7786e+01       3.4508e-01       3.4649e+02
       4.2221           4.7673e-02       5.2268e+01      3.2990e-02       3.1254e+01       3.2063e-01       3.0376e+02
       4.4710           5.6529e-02       6.0191e+01      3.4490e-02       3.0857e+01       3.5497e-01       3.1758e+02
       4.7469           6.6824e-02       6.8866e+01      3.4886e-02       2.9397e+01       3.8119e-01       3.2121e+02
       5.0582           7.7651e-02       7.7429e+01      3.3071e-02       2.6153e+01       3.8504e-01       3.0449e+02
       5.4018           8.9788e-02       8.6416e+01      3.3727e-02       2.4974e+01       4.1934e-01       3.1052e+02
       5.7859           1.0434e-01       9.6473e+01      3.5630e-02       2.4633e+01       4.7449e-01       3.2803e+02
       6.2230           1.2215e-01       1.0793e+02      3.8240e-02       2.4580e+01       5.4769e-01       3.5204e+02
       6.7098           1.4753e-01       1.2305e+02      4.9976e-02       2.9793e+01       7.7176e-01       4.6008e+02
       7.3985           2.3976e-01       1.7292e+02      1.0605e-01       5.7338e+01       1.8046e+00       9.7566e+02
       8.1373           3.5979e-01       2.3192e+02      1.9744e-01       9.7056e+01       3.6978e+00       1.8177e+03
       8.9915           5.5288e-01       3.1782e+02      1.7549e-01       7.8068e+01       3.6287e+00       1.6143e+03
       9.8910           6.4832e-01       3.5642e+02      1.3659e-01       5.5239e+01       3.1096e+00       1.2575e+03
      11.3913           7.8433e-01       4.0418e+02      5.9088e-02       2.0748e+01       1.5445e+00       5.4236e+02
      13.8924           7.9433e-01       4.0705e+02      3.7010e-03       1.0656e+00       1.1801e-01       3.3980e+01
      17.0287           8.0082e-01       4.0858e+02      1.8168e-03       4.2676e-01       7.0975e-02       1.6672e+01
      19.5736           8.0304e-01       4.0903e+02      1.4628e-03       2.9893e-01       6.5894e-02       1.3466e+01
      23.4013           8.0953e-01       4.1014e+02      1.0576e-03       1.8078e-01       5.6658e-02       9.6847e+00
      32.2561           8.1713e-01       4.1108e+02      6.5689e-04       8.1460e-02       4.8261e-02       5.9847e+00
      51.9723           8.2965e-01       4.1205e+02      4.4927e-04       3.4578e-02       5.2452e-02       4.0369e+00
      99.4144           8.4571e-01       4.1269e+02      2.3966e-04       9.6430e-03       5.2716e-02       2.1211e+00
== ^G Interpolated Adsorption ==


            Diameter                   Average         Volume         Cumulative       Surf. Area       Cumulative
            Interval                  Diameter        Increment         Volume          Increment       Surf. Area
               nm                        nm             cc/g             cc/g             m²/g             m²/g

           90.000 - 100.000             95.000           3.188e-03        3.188e-03        1.342e-01        1.342e-01
           80.000 - 90.000              85.000           3.386e-03        6.573e-03        1.593e-01        2.935e-01
           70.000 - 80.000              75.000           3.386e-03        9.959e-03        1.806e-01        4.741e-01
           60.000 - 70.000              65.000           3.386e-03        1.335e-02        2.084e-01        6.825e-01
           50.000 - 60.000              55.000           3.970e-03        1.732e-02        2.887e-01        9.712e-01
           45.000 - 50.000              47.500           3.174e-03        2.049e-02        2.673e-01        1.239e+00
           40.000 - 45.000              42.500           3.174e-03        2.366e-02        2.988e-01        1.537e+00
           35.000 - 40.000              37.500           3.174e-03        2.684e-02        3.386e-01        1.876e+00
           30.000 - 35.000              32.500           3.679e-03        3.052e-02        4.528e-01        2.329e+00
           25.000 - 30.000              27.500           4.292e-03        3.481e-02        6.243e-01        2.953e+00
           20.000 - 25.000              22.500           7.141e-03        4.195e-02        1.269e+00        4.222e+00
           15.000 - 20.000              17.500           7.141e-03        4.909e-02        1.632e+00        5.855e+00
           10.000 - 15.000              12.500           1.384e-01        1.875e-01        4.429e+01        5.015e+01
            9.000 - 10.000               9.500           1.044e-01        2.919e-01        4.396e+01        9.411e+01
            8.000 - 9.000                8.500           2.163e-01        5.082e-01        1.018e+02        1.959e+02
            7.000 - 8.000                7.500           1.511e-01        6.593e-01        8.058e+01        2.765e+02
            6.000 - 7.000                6.500           7.332e-02        7.326e-01        4.512e+01        3.216e+02
            5.000 - 6.000                5.500           3.744e-02        7.701e-01        2.723e+01        3.488e+02
            4.500 - 5.000                4.750           1.802e-02        7.881e-01        1.517e+01        3.640e+02
            4.000 - 4.500                4.250           1.734e-02        8.054e-01        1.632e+01        3.803e+02
            3.500 - 4.000                3.750           2.139e-02        8.268e-01        2.281e+01        4.031e+02
            3.000 - 3.500                3.250           1.635e-02        8.432e-01        2.012e+01        4.233e+02
== BJH desorption summary ==
 
                                              Surface Area =         527.904 ~s/g
                                               Pore Volume =           0.908 cc/g
                                            Pore ^D Dv(^p) =           7.414 ^d
 
== ^G Desorption  ==


    Diameter        Pore Volume       Pore Surf         dV(d)            dS(d)          dV(logd)         dS(logd)
                                        Area                                                                  
       nm              cc/g             m²/g           cc/nm/g          m²/nm/g           cc/g             cc/g

       3.1455           2.2773e-03       2.8959e+00      1.7957e-02       2.2835e+01       1.3004e-01       1.6537e+02
       3.2756           5.1829e-03       6.4441e+00      2.1791e-02       2.6611e+01       1.6433e-01       2.0068e+02
       3.4147           9.2588e-03       1.1219e+01      2.8115e-02       3.2934e+01       2.2103e-01       2.5891e+02
       3.5606           1.4051e-02       1.6602e+01      3.2654e-02       3.6684e+01       2.6768e-01       3.0071e+02
       3.7159           1.9185e-02       2.2129e+01      3.1340e-02       3.3736e+01       2.6811e-01       2.8860e+02
       3.8818           2.6570e-02       2.9739e+01      4.3985e-02       4.5325e+01       3.9308e-01       4.0505e+02
       4.0587           3.3674e-02       3.6740e+01      3.8195e-02       3.7643e+01       3.5689e-01       3.5173e+02
       4.2756           4.4433e-02       4.6806e+01      4.3429e-02       4.0630e+01       4.2743e-01       3.9989e+02
       4.5380           5.8355e-02       5.9078e+01      5.0243e-02       4.4286e+01       5.2483e-01       4.6261e+02
       4.7648           6.8992e-02       6.8007e+01      6.0227e-02       5.0559e+01       6.6070e-01       5.5464e+02
       5.0164           9.1277e-02       8.5776e+01      6.8230e-02       5.4405e+01       7.8783e-01       6.2820e+02
       5.4556           1.4101e-01       1.2224e+02      9.0153e-02       6.6100e+01       1.1315e+00       8.2963e+02
       5.9349           1.9876e-01       1.6116e+02      1.4193e-01       9.5656e+01       1.9387e+00       1.3067e+03
       6.3919           3.1842e-01       2.3605e+02      2.3595e-01       1.4766e+02       3.4709e+00       2.1721e+03
       6.8454           4.4207e-01       3.0830e+02      3.0921e-01       1.8068e+02       4.8725e+00       2.8471e+03
       7.4136           6.7222e-01       4.3247e+02      3.1252e-01       1.6862e+02       5.3305e+00       2.8761e+03
       8.2209           8.2828e-01       5.0841e+02      1.7770e-01       8.6463e+01       3.3605e+00       1.6351e+03
       9.0755           8.4444e-01       5.1553e+02      1.9449e-02       8.5721e+00       4.0615e-01       1.7901e+02
      10.0678           8.5170e-01       5.1842e+02      6.2938e-03       2.5005e+00       1.4574e-01       5.7904e+01
      11.3960           8.5762e-01       5.2049e+02      3.9355e-03       1.3814e+00       1.0312e-01       3.6195e+01
      13.1594           8.6311e-01       5.2216e+02      2.7116e-03       8.2422e-01       8.2000e-02       2.4925e+01
      15.3501           8.6764e-01       5.2334e+02      1.9226e-03       5.0100e-01       6.7819e-02       1.7673e+01
      17.2542           8.7001e-01       5.2389e+02      1.6318e-03       3.7830e-01       6.4792e-02       1.5021e+01
      20.3448           8.7861e-01       5.2558e+02      1.8184e-03       3.5751e-01       8.4798e-02       1.6672e+01
      27.7310           8.8406e-01       5.2637e+02      5.4330e-04       7.8368e-02       3.4309e-02       4.9488e+00
      44.6904           8.9494e-01       5.2734e+02      4.5538e-04       4.0758e-02       4.5723e-02       4.0924e+00
      94.7775           9.0823e-01       5.2790e+02      1.7423e-04       7.3532e-03       3.5872e-02       1.5140e+00
== ^G Interpolated Desorption ==


            Diameter                   Average         Volume         Cumulative       Surf. Area       Cumulative
            Interval                  Diameter       Incremen t         Volume          Increment       Surf. Area
               nm                        nm             cc/g             cc/g             m²/g             m²/g

           90.000 - 100.000             95.000           1.268e-03        1.268e-03        5.339e-02        5.339e-02
           80.000 - 90.000              85.000           2.654e-03        3.922e-03        1.249e-01        1.783e-01
           70.000 - 80.000              75.000           2.654e-03        6.576e-03        1.415e-01        3.198e-01
           60.000 - 70.000              65.000           2.654e-03        9.230e-03        1.633e-01        4.832e-01
           50.000 - 60.000              55.000           2.654e-03        1.188e-02        1.930e-01        6.762e-01
           45.000 - 50.000              47.500           1.327e-03        1.321e-02        1.117e-01        7.879e-01
           40.000 - 45.000              42.500           3.089e-03        1.630e-02        2.908e-01        1.079e+00
           35.000 - 40.000              37.500           3.206e-03        1.951e-02        3.419e-01        1.421e+00
           30.000 - 35.000              32.500           3.206e-03        2.271e-02        3.945e-01        1.815e+00
           25.000 - 30.000              27.500           3.472e-03        2.618e-02        5.050e-01        2.320e+00
           20.000 - 25.000              22.500           4.398e-03        3.058e-02        7.819e-01        3.102e+00
           15.000 - 20.000              17.500           1.073e-02        4.132e-02        2.453e+00        5.555e+00
           10.000 - 15.000              12.500           1.571e-02        5.702e-02        5.026e+00        1.058e+01
            9.000 - 10.000               9.500           8.192e-03        6.521e-02        3.449e+00        1.403e+01
            8.000 - 9.000                8.500           5.743e-02        1.226e-01        2.703e+01        4.106e+01
            7.000 - 8.000                7.500           2.809e-01        4.035e-01        1.498e+02        1.909e+02
            6.000 - 7.000                6.500           2.889e-01        6.924e-01        1.778e+02        3.686e+02
            5.000 - 6.000                5.500           1.260e-01        8.184e-01        9.163e+01        4.603e+02
            4.500 - 5.000                4.750           3.348e-02        8.519e-01        2.819e+01        4.885e+02
            4.000 - 4.500                4.250           2.502e-02        8.769e-01        2.355e+01        5.120e+02
            3.500 - 4.000                3.750           1.926e-02        8.962e-01        2.054e+01        5.326e+02
            3.000 - 3.500                3.250           9.783e-03        9.060e-01        1.204e+01        5.446e+02
