== Analysis Data ==
                                               Administrative information

Analysis performed on:                                                        04/03/14
Analysis performed by:                                                        Melgunov
Comments:                                                                      
Instrument:                                                                   Autosorb Station: 1
Instrument version:                                                           n/a
Software version:                                                             n/a
 
                                                  Sample ifnformation

Id:                                                                           GSO TX 8nm
Description:                                                                  Reference material
Weight:                                                                       0.0787 g
 
                                             Sample preparation information

Outgas time:                                                                  10.0 hrs
Outgas temperature:                                                           250.0 C
 
                                                  Analysis information

Analysis gas:                                                                 NITROGEN
Cross Section Area:                                                           16.2 
Molecular weight:                                                             28.0134 
Non-ideality correction:                                                      6.58e-05 
Ambient temperature:                                                          297.15 K
Pressure tolerance band:                                                      0
Equilibration time:                                                           3
== Data Reduction Parameters ==
                  Thermal Transpiration: on     Eff. mol. diameter (D): 3.54 Å      Eff. cell stem diam. (d): 4.0000 mm
t-Method          Calc. method: Halsey
Alpha-s method    Std. isotherm: LICHROSPHER_SI-1000P / Po :      0.40
BJH/DH method     Moving pt. avg.: off          Ignoring P-tags below 0.35 P/Po
DA Method         Incr. E:    500.000           Incr. n:          0.100             Interact. Const. (K): 2.960nm³ x kJ / mol
DR method         Affinity coefficient (ß): 0.3300
Adsorbate         Nitrogen                      Temperature       77.350K
                  Molec. Wt.: 28.013            Cross Section:    16.200  Å²        Liquid Density:   0.808  g/cc
                  Contact Angle: 0.0  degrees   Surf. Tension:    8.850  erg/cm²
                  Critical Temp.: 126.200  K    Critical Press.:  33.500  atm       SuperCritic. K.:  1.000
                  Avg. Diameter:0.300  nm       Polarizability:   1.460  (cc/molec) x 10-24Magn. Suscept.:2.000
                  Molec. Density6.700  (mol/cm²)x1014
Adsorbent         Oxygen/Zeolite
== Volume/Area summary ==
                                                   Surface Area Data
 
MultiPoint BET                                                                           5.381e+02 m²/g
BJH method cumulative adsorption surface area                                            3.956e+02 m²/g
BJH method cumulative desorption surface area                                            5.287e+02 m²/g
 
                                                    Pore Volume Data
 
Total pore volume for pores with Diameter
less than 125.44 nm at P/Po = 0.984300                                                   8.702e-01 cc/g
BJH method cumulative adsorption pore volume                                             8.116e-01 cc/g
BJH method cumulative desorption pore volume                                             8.779e-01 cc/g
 
                                                     Pore Size Data
 
Average pore Diameter                                                                    6.469e+00 nm
BJH method adsorption pore Diameter (Mode Dv(d))                                         8.792e+00 nm
BJH method desorption pore Diameter (Mode Dv(d))                                         6.845e+00 nm
 
 
== Isotherm ==


                          Relative                                                  Volume @ STP
                          Pressure                                                         
                                                                                        cc/g

                             5.99982e-03                                                72.9800
                             1.07999e-02                                                79.7736
                             2.43000e-02                                                93.5414
                             4.84000e-02                                               107.4793
                             8.17000e-02                                               119.9067
                             9.72000e-02                                               124.5246
                             1.23500e-01                                               131.5416
                             1.48800e-01                                               137.4860
                             1.97500e-01                                               147.8319
                             2.19600e-01                                               152.3389
                             2.40000e-01                                               156.2206
                             2.60400e-01                                               160.0761
                             2.70500e-01                                               161.7955
                             2.80600e-01                                               163.6493
                             2.89900e-01                                               165.5105
                             2.99900e-01                                               167.3530
                             3.09800e-01                                               169.2828
                             3.19900e-01                                               171.1701
                             3.29800e-01                                               173.1084
                             3.39800e-01                                               174.9542
                             3.49700e-01                                               176.8742
                             3.59200e-01                                               178.6102
                             3.68900e-01                                               180.4552
                             3.79000e-01                                               182.3463
                             3.88900e-01                                               184.2879
                             3.99000e-01                                               186.0898
                             4.08600e-01                                               188.0165
                             4.19100e-01                                               190.0213
                             4.37400e-01                                               193.6639
                             4.70400e-01                                               200.4362
                             4.97200e-01                                               206.1943
                             5.22200e-01                                               211.8029
                             5.47000e-01                                               217.6267
                             5.72000e-01                                               223.9347
                             5.96900e-01                                               230.7278
                             6.21400e-01                                               238.2624
                             6.46200e-01                                               246.6715
                             6.70500e-01                                               255.9884
                             6.94100e-01                                               267.5389
                             7.21100e-01                                               286.7309
                             7.47300e-01                                               333.0169
                             7.69900e-01                                               399.0819
                             8.06300e-01                                               482.6083
                             8.19200e-01                                               504.7622
                             8.47900e-01                                               536.1395
                             8.74400e-01                                               541.9917
                             9.11700e-01                                               546.8936
                             9.38100e-01                                               550.7523
                             9.47500e-01                                               552.4202
                             9.70200e-01                                               557.4123
                             9.84300e-01                                               562.5980
                             9.58800e-01                                               557.0457
                             9.32000e-01                                               552.5878
                             9.05300e-01                                               549.0815
                             8.96000e-01                                               548.1202
                             8.71500e-01                                               545.3945
                             8.45300e-01                                               542.5714
                             8.20000e-01                                               539.9073
                             7.95000e-01                                               536.8793
                             7.70500e-01                                               532.4648
                             7.43300e-01                                               504.2473
                             7.17200e-01                                               453.6034
                             7.03200e-01                                               418.7874
                             6.76700e-01                                               342.5703
                             6.51900e-01                                               296.8486
                             6.26900e-01                                               270.9208
                             5.92300e-01                                               248.8728
                             5.67300e-01                                               236.9111
                             5.53300e-01                                               231.4011
                             5.28900e-01                                               222.6776
                             5.02600e-01                                               214.4248
                             4.82300e-01                                               208.7037
                             4.62500e-01                                               203.1513
                             4.41200e-01                                               198.1038
                             4.22200e-01                                               193.6319
                             4.01400e-01                                               189.0947
                             3.81500e-01                                               185.0157
                             3.61600e-01                                               181.1018
                             3.41500e-01                                               177.1529
                             3.21300e-01                                               173.2369
                             3.01400e-01                                               169.4247
                             2.81400e-01                                               165.5814
                             2.61200e-01                                               161.7239
                             2.41400e-01                                               157.9126
                             2.21300e-01                                               153.8966
                             2.00500e-01                                               149.6361
                             1.80400e-01                                               145.5547
                             1.60600e-01                                               141.4138
                             1.00800e-01                                               127.0122
                             4.49000e-02                                               106.9896
== MBET summary ==
                                                     Slope =           6.404
                                                 Intercept =           6.829e-02
                                Correlation coefficient, r =           0.999980
                                                 C constant=          94.780
 
                                              Surface Area =         538.080 ~s/g
== Multi-Point BET ==


               Relative                            Volume @ STP                       1 / [ W((Po/P) - 1) ]
               Pressure                                                                          
                 P/Po                                  cc/g                                      

                  4.84000e-02                         107.4793                                 3.7863e-01
                  8.17000e-02                         119.9067                                 5.9367e-01
                  9.72000e-02                         124.5246                                 6.9178e-01
                  1.23500e-01                         131.5416                                 8.5704e-01
                  1.48800e-01                         137.4860                                 1.0173e+00
                  1.97500e-01                         147.8319                                 1.3320e+00
                  2.19600e-01                         152.3389                                 1.4779e+00
== BJH adsorption summary ==
 
                                              Surface Area =         395.624 ~s/g
                                               Pore Volume =           0.812 cc/g
                                            Pore ^D Dv(^p) =           8.792 ^d
 
== ^G Adsorption  ==


    Diameter        Pore Volume       Pore Surf         dV(d)            dS(d)          dV(logd)         dS(logd)
                                        Area                                                                  
       nm              cc/g             m²/g           cc/nm/g          m²/nm/g           cc/g             cc/g

       3.1000           3.0278e-03       3.9068e+00      5.0087e-02       6.4629e+01       3.5751e-01       4.6131e+02
       3.1624           6.0140e-03       7.6839e+00      4.6325e-02       5.8594e+01       3.3731e-01       4.2665e+02
       3.2271           9.2547e-03       1.1701e+01      5.0029e-02       6.2012e+01       3.7173e-01       4.6077e+02
       3.2933           1.1792e-02       1.4783e+01      3.7425e-02       4.5456e+01       2.8379e-01       3.4469e+02
       3.3603           1.5005e-02       1.8608e+01      4.8573e-02       5.7820e+01       3.7582e-01       4.4736e+02
       3.4306           1.8060e-02       2.2170e+01      4.1085e-02       4.7905e+01       3.2453e-01       3.7839e+02
       3.5352           2.3804e-02       2.8668e+01      4.2549e-02       4.8142e+01       3.4631e-01       3.9184e+02
       3.7342           3.4376e-02       3.9993e+01      4.0206e-02       4.3068e+01       3.4556e-01       3.7016e+02
       3.9832           4.3323e-02       4.8978e+01      3.8067e-02       3.8227e+01       3.4903e-01       3.5051e+02
       4.2207           5.1980e-02       5.7182e+01      3.6089e-02       3.4203e+01       3.5064e-01       3.3231e+02
       4.4711           6.0900e-02       6.5163e+01      3.4180e-02       3.0579e+01       3.5178e-01       3.1472e+02
       4.7468           7.0718e-02       7.3435e+01      3.3801e-02       2.8483e+01       3.6933e-01       3.1122e+02
       5.0528           8.1445e-02       8.1927e+01      3.3350e-02       2.6401e+01       3.8789e-01       3.0706e+02
       5.3908           9.3889e-02       9.1161e+01      3.5128e-02       2.6065e+01       4.3588e-01       3.2342e+02
       5.7702           1.0800e-01       1.0094e+02      3.4861e-02       2.4166e+01       4.6298e-01       3.2095e+02
       6.1983           1.2403e-01       1.1129e+02      3.5524e-02       2.2925e+01       5.0679e-01       3.2705e+02
       6.6755           1.4564e-01       1.2424e+02      4.2971e-02       2.5749e+01       6.6020e-01       3.9559e+02
       7.2638           1.8516e-01       1.4600e+02      5.8654e-02       3.2300e+01       9.8031e-01       5.3984e+02
       7.9928           2.9391e-01       2.0042e+02      1.3865e-01       6.9388e+01       2.5497e+00       1.2760e+03
       8.7918           4.5156e-01       2.7215e+02      1.9377e-01       8.8157e+01       3.9198e+00       1.7834e+03
      10.0452           6.4427e-01       3.4889e+02      1.1382e-01       4.5322e+01       2.6263e+00       1.0458e+03
      11.2707           6.9426e-01       3.6663e+02      6.5957e-02       2.3408e+01       1.7110e+00       6.0725e+02
      12.7160           7.6299e-01       3.8825e+02      3.2229e-02       1.0138e+01       9.4143e-01       2.9614e+02
      15.1874           7.7499e-01       3.9141e+02      4.2675e-03       1.1239e+00       1.4881e-01       3.9192e+01
      19.9620           7.8431e-01       3.9328e+02      1.3835e-03       2.7722e-01       6.2981e-02       1.2620e+01
      28.1187           7.9133e-01       3.9427e+02      7.3348e-04       1.0434e-01       4.7027e-02       6.6898e+00
      35.7551           7.9431e-01       3.9461e+02      5.2290e-04       5.8498e-02       4.2959e-02       4.8059e+00
      52.7928           8.0293e-01       3.9526e+02      3.0381e-04       2.3019e-02       3.6024e-02       2.7295e+00
      96.2095           8.1165e-01       3.9562e+02      1.4906e-04       6.1973e-03       3.1979e-02       1.3296e+00
== ^G Interpolated Adsorption ==


            Diameter                   Average         Volume         Cumulative       Surf. Area       Cumulative
            Interval                  Diameter        Increment         Volume          Increment       Surf. Area
               nm                        nm             cc/g             cc/g             m²/g             m²/g

           90.000 - 100.000             95.000           1.246e-03        1.246e-03        5.247e-02        5.247e-02
           80.000 - 90.000              85.000           2.007e-03        3.253e-03        9.445e-02        1.469e-01
           70.000 - 80.000              75.000           2.007e-03        5.260e-03        1.070e-01        2.540e-01
           60.000 - 70.000              65.000           2.007e-03        7.267e-03        1.235e-01        3.775e-01
           50.000 - 60.000              55.000           2.860e-03        1.013e-02        2.080e-01        5.854e-01
           45.000 - 50.000              47.500           2.530e-03        1.266e-02        2.131e-01        7.985e-01
           40.000 - 45.000              42.500           2.530e-03        1.519e-02        2.381e-01        1.037e+00
           35.000 - 40.000              37.500           2.443e-03        1.763e-02        2.605e-01        1.297e+00
           30.000 - 35.000              32.500           1.951e-03        1.958e-02        2.401e-01        1.537e+00
           25.000 - 30.000              27.500           3.419e-03        2.300e-02        4.973e-01        2.035e+00
           20.000 - 25.000              22.500           4.305e-03        2.730e-02        7.653e-01        2.800e+00
           15.000 - 20.000              17.500           1.027e-02        3.757e-02        2.346e+00        5.146e+00
           10.000 - 15.000              12.500           1.368e-01        1.743e-01        4.376e+01        4.891e+01
            9.000 - 10.000               9.500           1.538e-01        3.281e-01        6.474e+01        1.136e+02
            8.000 - 9.000                8.500           1.882e-01        5.163e-01        8.858e+01        2.022e+02
            7.000 - 8.000                7.500           1.279e-01        6.442e-01        6.821e+01        2.704e+02
            6.000 - 7.000                6.500           5.084e-02        6.950e-01        3.128e+01        3.017e+02
            5.000 - 6.000                5.500           3.701e-02        7.321e-01        2.692e+01        3.286e+02
            4.500 - 5.000                4.750           1.766e-02        7.497e-01        1.487e+01        3.435e+02
            4.000 - 4.500                4.250           1.799e-02        7.677e-01        1.694e+01        3.604e+02
            3.500 - 4.000                3.750           2.207e-02        7.898e-01        2.354e+01        3.840e+02
            3.000 - 3.500                3.250           1.884e-02        8.086e-01        2.319e+01        4.072e+02
== BJH desorption summary ==
 
                                              Surface Area =         528.738 ~s/g
                                               Pore Volume =           0.878 cc/g
                                            Pore ^D Dv(^p) =           6.845 ^d
 
== ^G Desorption  ==


    Diameter        Pore Volume       Pore Surf         dV(d)            dS(d)          dV(logd)         dS(logd)
                                        Area                                                                  
       nm              cc/g             m²/g           cc/nm/g          m²/nm/g           cc/g             cc/g

       3.1477           3.7814e-03       4.8053e+00      2.9942e-02       3.8049e+01       2.1699e-01       2.7574e+02
       3.2772           8.0233e-03       9.9827e+00      3.1953e-02       3.9000e+01       2.4109e-01       2.9426e+02
       3.4169           1.3277e-02       1.6133e+01      3.5864e-02       4.1985e+01       2.8212e-01       3.3027e+02
       3.5609           1.9069e-02       2.2640e+01      4.0915e-02       4.5961e+01       3.3543e-01       3.7679e+02
       3.7160           2.5353e-02       2.9403e+01      3.7276e-02       4.0126e+01       3.1889e-01       3.4327e+02
       3.8838           3.3974e-02       3.8282e+01      5.1560e-02       5.3102e+01       4.6103e-01       4.7482e+02
       4.0591           4.2518e-02       4.6702e+01      4.6613e-02       4.5935e+01       4.3559e-01       4.2925e+02
       4.2797           5.5837e-02       5.9150e+01      5.1636e-02       4.8261e+01       5.0869e-01       4.7544e+02
       4.5403           7.1028e-02       7.2534e+01      5.7694e-02       5.0828e+01       6.0299e-01       5.3123e+02
       4.7535           8.1036e-02       8.0955e+01      6.1358e-02       5.1631e+01       6.7152e-01       5.6507e+02
       4.9933           1.0494e-01       1.0010e+02      7.5539e-02       6.0512e+01       8.6823e-01       6.9551e+02
       5.4024           1.5319e-01       1.3583e+02      9.6147e-02       7.1188e+01       1.1952e+00       8.8491e+02
       5.8633           2.1609e-01       1.7874e+02      1.4982e-01       1.0221e+02       2.0218e+00       1.3793e+03
       6.3113           3.3402e-01       2.5348e+02      2.4761e-01       1.5693e+02       3.5966e+00       2.2795e+03
       6.8452           5.3329e-01       3.6993e+02      3.3690e-01       1.9687e+02       5.3069e+00       3.1011e+03
       7.3184           6.2286e-01       4.1888e+02      2.5245e-01       1.3798e+02       4.2533e+00       2.3247e+03
       7.8756           7.5048e-01       4.8370e+02      1.6801e-01       8.5332e+01       3.0443e+00       1.5462e+03
       8.7388           8.1942e-01       5.1526e+02      7.1292e-02       3.2633e+01       1.4331e+00       6.5596e+02
       9.7631           8.2943e-01       5.1936e+02      9.2534e-03       3.7912e+00       2.0781e-01       8.5140e+01
      11.0020           8.3595e-01       5.2173e+02      4.6683e-03       1.6973e+00       1.1810e-01       4.2939e+01
      12.6288           8.4145e-01       5.2347e+02      2.9649e-03       9.3910e-01       8.6061e-02       2.7259e+01
      14.8936           8.4711e-01       5.2499e+02      2.1165e-03       5.6843e-01       7.2387e-02       1.9441e+01
      18.0730           8.5239e-01       5.2616e+02      1.4336e-03       3.1729e-01       5.9451e-02       1.3158e+01
      20.8605           8.5421e-01       5.2651e+02      9.6035e-04       1.8415e-01       4.6097e-02       8.8391e+00
      25.9235           8.6069e-01       5.2751e+02      7.8707e-04       1.2144e-01       4.6583e-02       7.1877e+00
      39.4479           8.6861e-01       5.2831e+02      4.2100e-04       4.2689e-02       3.7505e-02       3.8029e+00
      87.1456           8.7793e-01       5.2874e+02      1.2171e-04       5.5864e-03       2.2760e-02       1.0447e+00
== ^G Interpolated Desorption ==


            Diameter                   Average         Volume         Cumulative       Surf. Area       Cumulative
            Interval                  Diameter       Incremen t         Volume          Increment       Surf. Area
               nm                        nm             cc/g             cc/g             m²/g             m²/g

           80.000 - 90.000              85.000           1.396e-03        1.396e-03        6.571e-02        6.571e-02
           70.000 - 80.000              75.000           1.954e-03        3.351e-03        1.042e-01        1.699e-01
           60.000 - 70.000              65.000           1.954e-03        5.305e-03        1.203e-01        2.902e-01
           50.000 - 60.000              55.000           1.954e-03        7.259e-03        1.421e-01        4.323e-01
           45.000 - 50.000              47.500           9.771e-04        8.236e-03        8.228e-02        5.146e-01
           40.000 - 45.000              42.500           9.771e-04        9.213e-03        9.196e-02        6.066e-01
           35.000 - 40.000              37.500           2.713e-03        1.193e-02        2.893e-01        8.959e-01
           30.000 - 35.000              32.500           2.928e-03        1.485e-02        3.604e-01        1.256e+00
           25.000 - 30.000              27.500           3.570e-03        1.842e-02        5.192e-01        1.775e+00
           20.000 - 25.000              22.500           5.861e-03        2.428e-02        1.042e+00        2.817e+00
           15.000 - 20.000              17.500           6.362e-03        3.065e-02        1.454e+00        4.272e+00
           10.000 - 15.000              12.500           1.661e-02        4.726e-02        5.316e+00        9.587e+00
            9.000 - 10.000               9.500           8.703e-03        5.596e-02        3.664e+00        1.325e+01
            8.000 - 9.000                8.500           6.155e-02        1.175e-01        2.897e+01        4.222e+01
            7.000 - 8.000                7.500           1.978e-01        3.153e-01        1.055e+02        1.477e+02
            6.000 - 7.000                6.500           3.105e-01        6.259e-01        1.911e+02        3.388e+02
            5.000 - 6.000                5.500           1.463e-01        7.722e-01        1.064e+02        4.452e+02
            4.500 - 5.000                4.750           3.705e-02        8.093e-01        3.120e+01        4.764e+02
            4.000 - 4.500                4.250           2.904e-02        8.383e-01        2.733e+01        5.038e+02
            3.500 - 4.000                3.750           2.302e-02        8.613e-01        2.455e+01        5.283e+02
            3.000 - 3.500                3.250           1.284e-02        8.742e-01        1.580e+01        5.441e+02
