== Analysis Data ==
                                               Administrative information

Analysis performed on:                                                        01/24/14
Analysis performed by:                                                        Melgunov
Comments:                                                                      
Instrument:                                                                   Autosorb Station: 1
Instrument version:                                                           n/a
Software version:                                                             n/a
 
                                                  Sample ifnformation

Id:                                                                           oksid Al, metrolog. N1-1
Description:                                                                  Reference material
Weight:                                                                       0.1608 g
 
                                             Sample preparation information

Outgas time:                                                                  10.0 hrs
Outgas temperature:                                                           250.0 C
 
                                                  Analysis information

Analysis gas:                                                                 NITROGEN
Cross Section Area:                                                           16.2 
Molecular weight:                                                             28.0134 
Non-ideality correction:                                                      6.58e-05 
Ambient temperature:                                                          297.15 K
Pressure tolerance band:                                                      0
Equilibration time:                                                           3
== Data Reduction Parameters ==
                  Thermal Transpiration: on     Eff. mol. diameter (D): 3.54 Å      Eff. cell stem diam. (d): 4.0000 mm
t-Method          Calc. method: Halsey
MP method         Thickness interval: 0.50A
Alpha-s method    Std. isotherm: ALUMINIUMOXIDC P / Po :          0.40
BJH/DH method     Moving pt. avg.: off          Ignoring P-tags below 0.35 P/Po
DA Method         Incr. E:    500.000           Incr. n:          0.100             Interact. Const. (K): 2.960nm³ x kJ / mol
DR method         Affinity coefficient (ß): 0.3300
Adsorbate         Nitrogen                      Temperature       77.350K
                  Molec. Wt.: 28.013            Cross Section:    16.200  Å²        Liquid Density:   0.808  g/cc
                  Contact Angle: 0.0  degrees   Surf. Tension:    8.850  erg/cm²
                  Critical Temp.: 126.200  K    Critical Press.:  33.500  atm       SuperCritic. K.:  1.000
                  Avg. Diameter:0.300  nm       Polarizability:   1.460  (cc/molec) x 10-24Magn. Suscept.:2.000
                  Molec. Density6.700  (mol/cm²)x1014
Adsorbent         Oxygen/Zeolite
== Volume/Area summary ==
                                                   Surface Area Data
 
MultiPoint BET                                                                           2.134e+02 m²/g
BJH method cumulative adsorption surface area                                            2.196e+02 m²/g
BJH method cumulative desorption surface area                                            2.706e+02 m²/g
 
                                                    Pore Volume Data
 
Total pore volume for pores with Diameter
less than 159.45 nm at P/Po = 0.987700                                                   6.964e-01 cc/g
BJH method cumulative adsorption pore volume                                             7.380e-01 cc/g
BJH method cumulative desorption pore volume                                             7.696e-01 cc/g
 
                                                     Pore Size Data
 
Average pore Diameter                                                                    1.305e+01 nm
BJH method adsorption pore Diameter (Mode Dv(d))                                         7.553e+00 nm
BJH method desorption pore Diameter (Mode Dv(d))                                         1.663e+01 nm
 
 
== Isotherm ==


                          Relative                                                  Volume @ STP
                          Pressure                                                         
                                                                                        cc/g

                             4.59977e-03                                                30.8334
                             1.04999e-02                                                35.1535
                             2.32000e-02                                                39.1570
                             5.32000e-02                                                44.3882
                             7.13000e-02                                                46.6493
                             9.77000e-02                                                49.5067
                             1.45800e-01                                                54.2009
                             1.96200e-01                                                58.8121
                             2.46400e-01                                                63.3164
                             2.96700e-01                                                67.9638
                             3.87900e-01                                                77.0648
                             4.88000e-01                                                88.9073
                             5.43200e-01                                                96.8928
                             5.92400e-01                                               105.5037
                             6.40600e-01                                               116.0615
                             6.88900e-01                                               129.5448
                             7.44600e-01                                               150.9293
                             7.94800e-01                                               177.8532
                             8.42900e-01                                               214.9641
                             8.89300e-01                                               276.0042
                             9.17200e-01                                               337.8679
                             9.46300e-01                                               419.9708
                             9.95000e-01                                               450.1647
                             9.97600e-01                                               473.1012
                             9.87700e-01                                               450.1956
                             9.45400e-01                                               446.8194
                             9.06600e-01                                               441.0077
                             9.02700e-01                                               437.6758
                             8.88800e-01                                               394.2077
                             8.56500e-01                                               282.1224
                             7.99000e-01                                               201.3705
                             7.48000e-01                                               166.0766
                             7.10300e-01                                               147.0826
                             6.59700e-01                                               126.2821
                             6.11300e-01                                               111.6823
                             5.60400e-01                                               100.4534
                             5.08700e-01                                                91.9475
                             4.81000e-01                                                87.9584
                             4.53400e-01                                                84.2919
                             4.27900e-01                                                81.0523
                             4.02400e-01                                                78.0221
                             3.55200e-01                                                72.9351
                             2.60400e-01                                                63.7831
                             1.52600e-01                                                53.6727
                             5.38000e-02                                                42.6444
                             5.29980e-03                                                26.9669
== MBET summary ==
                                                     Slope =          16.160
                                                 Intercept =           1.607e-01
                                Correlation coefficient, r =           0.999980
                                                 C constant=         101.576
 
                                              Surface Area =         213.386 ~s/g
== Multi-Point BET ==


               Relative                            Volume @ STP                       1 / [ W((Po/P) - 1) ]
               Pressure                                                                          
                 P/Po                                  cc/g                                      

                  5.32000e-02                          44.3882                                 1.0128e+00
                  7.13000e-02                          46.6493                                 1.3168e+00
                  9.77000e-02                          49.5067                                 1.7500e+00
                  1.45800e-01                          54.2009                                 2.5197e+00
                  1.96200e-01                          58.8121                                 3.3207e+00
                  2.46400e-01                          63.3164                                 4.1317e+00
                  2.96700e-01                          67.9638                                 4.9665e+00
== BJH adsorption summary ==
 
                                              Surface Area =         219.648 ~s/g
                                               Pore Volume =           0.738 cc/g
                                            Pore ^D Dv(^p) =           7.553 ^d
 
== ^G Adsorption  ==


    Diameter        Pore Volume       Pore Surf         dV(d)            dS(d)          dV(logd)         dS(logd)
                                        Area                                                                  
       nm              cc/g             m²/g           cc/nm/g          m²/nm/g           cc/g             cc/g

       3.6352           1.8549e-02       2.0410e+01      2.4252e-02       2.6686e+01       2.0225e-01       2.2255e+02
       4.2888           3.2096e-02       3.3045e+01      2.4982e-02       2.3300e+01       2.4637e-01       2.2978e+02
       4.8564           4.7577e-02       4.5796e+01      2.6108e-02       2.1504e+01       2.9158e-01       2.4016e+02
       5.5148           6.7579e-02       6.0304e+01      2.7636e-02       2.0045e+01       3.5043e-01       2.5417e+02
       6.3433           9.3935e-02       7.6924e+01      2.8241e-02       1.7808e+01       4.1174e-01       2.5964e+02
       7.5535           1.3678e-01       9.9612e+01      2.8809e-02       1.5256e+01       4.9944e-01       2.6448e+02
       9.2956           1.9068e-01       1.2280e+02      2.6989e-02       1.1614e+01       5.7545e-01       2.4762e+02
      11.8252           2.6396e-01       1.4759e+02      2.3931e-02       8.0948e+00       6.4794e-01       2.1917e+02
      16.0527           3.8299e-01       1.7725e+02      2.2073e-02       5.5002e+00       8.0815e-01       2.0138e+02
      21.7891           5.0166e-01       1.9904e+02      1.9518e-02       3.5831e+00       9.7285e-01       1.7859e+02
      31.2981           6.5399e-01       2.1851e+02      1.1774e-02       1.5048e+00       8.3629e-01       1.0688e+02
     212.7955           7.0165e-01       2.1940e+02      1.3612e-04       2.5587e-03       4.7108e-02       8.8550e-01
     595.5549           7.3799e-01       2.1965e+02      8.7469e-05       5.8748e-04       1.1491e-01       7.7182e-01
== ^G Interpolated Adsorption ==


            Diameter                   Average         Volume         Cumulative       Surf. Area       Cumulative
            Interval                  Diameter        Increment         Volume          Increment       Surf. Area
               nm                        nm             cc/g             cc/g             m²/g             m²/g

          550.000 - 600.000            575.000           4.325e-03        4.325e-03        3.009e-02        3.009e-02
          500.000 - 550.000            525.000           4.747e-03        9.072e-03        3.617e-02        6.626e-02
          450.000 - 500.000            475.000           4.747e-03        1.382e-02        3.998e-02        1.062e-01
          400.000 - 450.000            425.000           4.747e-03        1.857e-02        4.468e-02        1.509e-01
          350.000 - 400.000            375.000           4.747e-03        2.331e-02        5.064e-02        2.015e-01
          300.000 - 350.000            325.000           4.747e-03        2.806e-02        5.843e-02        2.600e-01
          250.000 - 300.000            275.000           4.747e-03        3.281e-02        6.905e-02        3.290e-01
          200.000 - 250.000            225.000           6.892e-03        3.970e-02        1.225e-01        4.515e-01
          150.000 - 200.000            175.000           1.313e-02        5.283e-02        3.000e-01        7.516e-01
          100.000 - 150.000            125.000           1.313e-02        6.595e-02        4.201e-01        1.172e+00
           90.000 - 100.000             95.000           2.625e-03        6.858e-02        1.105e-01        1.282e+00
           80.000 - 90.000              85.000           2.625e-03        7.120e-02        1.235e-01        1.406e+00
           70.000 - 80.000              75.000           2.625e-03        7.383e-02        1.400e-01        1.546e+00
           60.000 - 70.000              65.000           2.625e-03        7.645e-02        1.616e-01        1.707e+00
           50.000 - 60.000              55.000           2.625e-03        7.908e-02        1.909e-01        1.898e+00
           45.000 - 50.000              47.500           1.313e-03        8.039e-02        1.105e-01        2.009e+00
           40.000 - 45.000              42.500           1.313e-03        8.171e-02        1.235e-01        2.132e+00
           35.000 - 40.000              37.500           1.313e-03        8.302e-02        1.400e-01        2.272e+00
           30.000 - 35.000              32.500           2.177e-02        1.048e-01        2.679e+00        4.951e+00
           25.000 - 30.000              27.500           8.010e-02        1.849e-01        1.165e+01        1.660e+01
           20.000 - 25.000              22.500           8.845e-02        2.733e-01        1.572e+01        3.233e+01
           15.000 - 20.000              17.500           1.113e-01        3.846e-01        2.544e+01        5.777e+01
           10.000 - 15.000              12.500           1.423e-01        5.269e-01        4.553e+01        1.033e+02
            9.000 - 10.000               9.500           2.955e-02        5.565e-01        1.244e+01        1.157e+02
            8.000 - 9.000                8.500           3.094e-02        5.874e-01        1.456e+01        1.303e+02
            7.000 - 8.000                7.500           3.341e-02        6.208e-01        1.782e+01        1.481e+02
            6.000 - 7.000                6.500           3.417e-02        6.550e-01        2.103e+01        1.691e+02
            5.000 - 6.000                5.500           3.108e-02        6.860e-01        2.260e+01        1.917e+02
            4.500 - 5.000                4.750           1.408e-02        7.001e-01        1.186e+01        2.036e+02
            4.000 - 4.500                4.250           1.175e-02        7.119e-01        1.106e+01        2.147e+02
            3.500 - 4.000                3.750           7.561e-03        7.194e-01        8.065e+00        2.227e+02
== BJH desorption summary ==
 
                                              Surface Area =         270.566 ~s/g
                                               Pore Volume =           0.770 cc/g
                                            Pore ^D Dv(^p) =          16.625 ^d
 
== ^G Desorption  ==


    Diameter        Pore Volume       Pore Surf         dV(d)            dS(d)          dV(logd)         dS(logd)
                                        Area                                                                  
       nm              cc/g             m²/g           cc/nm/g          m²/nm/g           cc/g             cc/g

       3.1978           4.9400e-03       6.1791e+00      1.6183e-02       2.0242e+01       1.1907e-01       1.4894e+02
       3.4411           8.4096e-03       1.0212e+01      1.9138e-02       2.2246e+01       1.5160e-01       1.7623e+02
       3.6293           1.2404e-02       1.4615e+01      2.0475e-02       2.2567e+01       1.7107e-01       1.8854e+02
       3.8415           1.6967e-02       1.9365e+01      1.9899e-02       2.0720e+01       1.7597e-01       1.8323e+02
       4.0823           2.2230e-02       2.4523e+01      2.0867e-02       2.0447e+01       1.9608e-01       1.9213e+02
       4.4810           3.4350e-02       3.5342e+01      2.2233e-02       1.9846e+01       2.2911e-01       2.0452e+02
       5.0852           5.3406e-02       5.0331e+01      2.8726e-02       2.2596e+01       3.3588e-01       2.6420e+02
       5.8164           8.0938e-02       6.9266e+01      3.4456e-02       2.3696e+01       4.6074e-01       3.1685e+02
       6.7664           1.2215e-01       9.3629e+01      3.7436e-02       2.2131e+01       5.8197e-01       3.4404e+02
       7.8625           1.5954e-01       1.1265e+02      3.4261e-02       1.7430e+01       6.1926e-01       3.1504e+02
       9.4564           2.2939e-01       1.4220e+02      3.3316e-02       1.4093e+01       7.2245e-01       3.0559e+02
      12.5439           3.9375e-01       1.9461e+02      4.0301e-02       1.2851e+01       1.1537e+00       3.6789e+02
      16.6253           6.2342e-01       2.4986e+02      5.6229e-02       1.3528e+01       2.1416e+00       5.1527e+02
      19.9543           7.1085e-01       2.6739e+02      3.3976e-02       6.8107e+00       1.5589e+00       3.1249e+02
      21.6697           7.1746e-01       2.6861e+02      7.7109e-03       1.4233e+00       3.8469e-01       7.1010e+01
      29.6306           7.2813e-01       2.7005e+02      7.0805e-04       9.5583e-02       4.7249e-02       6.3784e+00
      98.3071           7.3337e-01       2.7027e+02      4.2893e-05       1.7453e-03       8.2927e-03       3.3742e-01
     481.3685           7.6959e-01       2.7057e+02      5.6252e-05       4.6744e-04       5.1574e-02       4.2856e-01
== ^G Interpolated Desorption ==


            Diameter                   Average         Volume         Cumulative       Surf. Area       Cumulative
            Interval                  Diameter       Incremen t         Volume          Increment       Surf. Area
               nm                        nm             cc/g             cc/g             m²/g             m²/g

          450.000 - 500.000            475.000           2.966e-03        2.966e-03        2.498e-02        2.498e-02
          400.000 - 450.000            425.000           4.727e-03        7.693e-03        4.449e-02        6.947e-02
          350.000 - 400.000            375.000           4.727e-03        1.242e-02        5.042e-02        1.199e-01
          300.000 - 350.000            325.000           4.727e-03        1.715e-02        5.818e-02        1.781e-01
          250.000 - 300.000            275.000           4.727e-03        2.188e-02        6.876e-02        2.468e-01
          200.000 - 250.000            225.000           4.727e-03        2.660e-02        8.404e-02        3.309e-01
          150.000 - 200.000            175.000           4.727e-03        3.133e-02        1.081e-01        4.389e-01
          100.000 - 150.000            125.000           4.727e-03        3.606e-02        1.513e-01        5.902e-01
           90.000 - 100.000             95.000           7.945e-04        3.685e-02        3.345e-02        6.237e-01
           80.000 - 90.000              85.000           7.638e-04        3.762e-02        3.594e-02        6.596e-01
           70.000 - 80.000              75.000           7.638e-04        3.838e-02        4.073e-02        7.003e-01
           60.000 - 70.000              65.000           7.638e-04        3.914e-02        4.700e-02        7.473e-01
           50.000 - 60.000              55.000           7.638e-04        3.991e-02        5.555e-02        8.029e-01
           45.000 - 50.000              47.500           3.819e-04        4.029e-02        3.216e-02        8.350e-01
           40.000 - 45.000              42.500           3.819e-04        4.067e-02        3.594e-02        8.710e-01
           35.000 - 40.000              37.500           3.819e-04        4.105e-02        4.073e-02        9.117e-01
           30.000 - 35.000              32.500           3.819e-04        4.143e-02        4.700e-02        9.587e-01
           25.000 - 30.000              27.500           6.233e-03        4.767e-02        9.066e-01        1.865e+00
           20.000 - 25.000              22.500           1.090e-02        5.856e-02        1.937e+00        3.802e+00
           15.000 - 20.000              17.500           1.791e-01        2.376e-01        4.093e+01        4.473e+01
           10.000 - 15.000              12.500           2.736e-01        5.113e-01        8.756e+01        1.323e+02
            9.000 - 10.000               9.500           4.894e-02        5.602e-01        2.061e+01        1.529e+02
            8.000 - 9.000                8.500           4.382e-02        6.040e-01        2.062e+01        1.735e+02
            7.000 - 8.000                7.500           3.545e-02        6.395e-01        1.890e+01        1.924e+02
            6.000 - 7.000                6.500           4.122e-02        6.807e-01        2.536e+01        2.178e+02
            5.000 - 6.000                5.500           3.818e-02        7.189e-01        2.777e+01        2.456e+02
            4.500 - 5.000                4.750           1.577e-02        7.346e-01        1.328e+01        2.588e+02
            4.000 - 4.500                4.250           1.452e-02        7.492e-01        1.366e+01        2.725e+02
            3.500 - 4.000                3.750           1.077e-02        7.599e-01        1.149e+01        2.840e+02
            3.000 - 3.500                3.250           4.719e-03        7.647e-01        5.808e+00        2.898e+02
